%OpenBCI Raw EEG Data
%
%Sample Rate = 250.0 Hz
%First Column = SampleIndex
%Last Column = Timestamp 
%Other Columns = EEG data in microvolts followed by Accel Data (in G) interleaved with Aux Data
0, 0.00, 0.00, 0.00, 0.00, 0.00, 0.00, 0.00, 0.00, 0.000, 0.000, 0.000, 23:07:08.904
1, 18235.02, 13877.84, 16107.02, 5363.86, 71478.91, 45722.41, -187500.02, 51106.21, 0.260, 0.908, 0.268, 23:07:09.383
2, 18259.65, 13917.83, 16138.70, 4700.84, 71502.65, 45761.64, -187500.02, 51190.19, 0.000, 0.000, 0.000, 23:07:09.384
3, 18243.85, 13975.81, 16116.68, 4893.98, 71798.34, 45783.77, -187500.02, 51256.97, 0.000, 0.000, 0.000, 23:07:09.384
4, 18208.15, 13968.57, 16071.71, 5705.98, 71958.09, 45751.85, -187500.02, 51217.48, 0.000, 0.000, 0.000, 23:07:09.384
5, 18190.65, 13897.51, 16051.64, 6025.47, 71747.27, 45705.36, -187500.02, 51130.04, 0.000, 0.000, 0.000, 23:07:09.384
6, 18223.13, 13872.99, 16101.03, 5408.41, 71456.60, 45711.24, -187500.02, 51122.21, 0.000, 0.000, 0.000, 23:07:09.385
7, 18242.49, 13909.69, 16148.29, 4739.31, 71497.17, 45764.39, -187500.02, 51210.82, 0.000, 0.000, 0.000, 23:07:09.385
8, 18225.97, 13970.02, 16130.54, 4930.97, 71815.57, 45781.27, -187500.02, 51264.93, 0.252, 0.910, 0.276, 23:07:09.385
9, 18192.93, 13969.62, 16083.85, 5748.51, 71987.21, 45756.16, -187500.02, 51234.06, 0.000, 0.000, 0.000, 23:07:09.386
10, 18184.64, 13904.75, 16072.80, 6046.21, 71762.24, 45717.88, -187500.02, 51157.71, 0.000, 0.000, 0.000, 23:07:09.386
11, 18211.64, 13868.79, 16110.98, 5411.78, 71462.97, 45722.86, -187500.02, 51135.74, 0.000, 0.000, 0.000, 23:07:09.386
12, 18233.93, 13908.01, 16145.25, 4715.64, 71492.68, 45762.47, -187500.02, 51206.97, 0.000, 0.000, 0.000, 23:07:09.386
13, 18209.63, 13956.85, 16115.85, 4922.70, 71818.25, 45796.58, -187500.02, 51268.69, 0.000, 0.000, 0.000, 23:07:09.387
14, 18169.35, 13942.44, 16060.91, 5785.88, 71973.64, 45734.04, -187500.02, 51217.39, 0.000, 0.000, 0.000, 23:07:09.387
15, 18173.04, 13892.03, 16060.35, 6085.93, 71744.96, 45704.78, -187500.02, 51130.24, 0.000, 0.000, 0.000, 23:07:09.387
16, 18215.08, 13872.57, 16120.88, 5438.63, 71459.11, 45727.00, -187500.02, 51112.22, 0.000, 0.000, 0.000, 23:07:09.387
17, 18225.14, 13900.82, 16132.46, 4757.05, 71499.85, 45770.16, -187500.02, 51168.42, 0.000, 0.000, 0.000, 23:07:09.387
18, 18203.01, 13948.90, 16101.50, 4976.26, 71812.66, 45768.91, -187500.02, 51222.78, 0.252, 0.914, 0.286, 23:07:09.388
19, 18171.83, 13947.85, 16069.74, 5821.51, 71982.18, 45737.34, -187500.02, 51200.00, 0.000, 0.000, 0.000, 23:07:09.388
20, 18171.43, 13894.65, 16072.18, 6130.84, 71772.14, 45708.24, -187500.02, 51131.51, 0.000, 0.000, 0.000, 23:07:09.388
21, 18196.46, 13861.79, 16107.85, 5491.76, 71480.20, 45715.11, -187500.02, 51114.50, 0.000, 0.000, 0.000, 23:07:09.388
22, 18223.47, 13901.44, 16145.25, 4803.57, 71516.17, 45763.92, -187500.02, 51190.54, 0.000, 0.000, 0.000, 23:07:09.389
23, 18218.19, 13964.72, 16135.08, 4996.71, 71834.64, 45786.52, -187500.02, 51264.80, 0.000, 0.000, 0.000, 23:07:09.389
24, 18170.29, 13947.89, 16079.13, 5843.55, 72000.98, 45742.39, -187500.02, 51222.55, 0.000, 0.000, 0.000, 23:07:09.390
25, 18163.56, 13885.77, 16078.73, 6159.36, 71793.42, 45700.80, -187500.02, 51135.71, 0.000, 0.000, 0.000, 23:07:09.390
26, 18199.55, 13861.01, 16132.95, 5516.72, 71505.04, 45717.38, -187500.02, 51128.90, 0.000, 0.000, 0.000, 23:07:09.390
27, 18230.73, 13906.38, 16165.94, 4816.91, 71528.42, 45770.65, -187500.02, 51198.88, 0.000, 0.000, 0.000, 23:07:09.391
28, 18215.84, 13964.92, 16135.28, 5021.19, 71834.34, 45797.67, -187500.02, 51254.02, 0.256, 0.916, 0.286, 23:07:09.391
29, 18176.62, 13956.23, 16082.42, 5876.36, 72002.66, 45744.07, -187500.02, 51223.40, 0.000, 0.000, 0.000, 23:07:09.391
30, 18179.14, 13894.47, 16081.32, 6203.26, 71787.52, 45701.07, -187500.02, 51148.66, 0.000, 0.000, 0.000, 23:07:09.392
31, 18212.56, 13860.99, 16121.40, 5565.79, 71501.93, 45725.36, -187500.02, 51118.08, 0.000, 0.000, 0.000, 23:07:09.392
32, 18229.68, 13897.26, 16142.67, 4880.19, 71523.21, 45760.90, -187500.02, 51163.21, 0.000, 0.000, 0.000, 23:07:09.392
33, 18224.45, 13968.81, 16137.87, 5071.10, 71845.57, 45765.60, -187500.02, 51239.38, 0.000, 0.000, 0.000, 23:07:09.392
34, 18187.23, 13964.10, 16086.19, 5910.49, 72015.59, 45741.97, -187500.02, 51202.05, 0.000, 0.000, 0.000, 23:07:09.392
35, 18173.91, 13895.01, 16071.71, 6231.55, 71797.66, 45698.54, -187500.02, 51109.25, 0.000, 0.000, 0.000, 23:07:09.392
36, 18209.61, 13862.75, 16119.79, 5598.46, 71496.81, 45708.78, -187500.02, 51096.18, 0.000, 0.000, 0.000, 23:07:09.393
37, 18233.90, 13901.64, 16137.62, 4899.01, 71525.34, 45759.05, -187500.02, 51194.01, 0.000, 0.000, 0.000, 23:07:09.393
38, 18217.25, 13959.25, 16117.15, 5111.08, 71827.40, 45764.84, -187500.02, 51246.98, 0.262, 0.900, 0.290, 23:07:09.393
39, 18189.47, 13963.16, 16078.70, 5957.70, 71998.52, 45722.93, -187500.02, 51202.35, 0.000, 0.000, 0.000, 23:07:09.393
40, 18182.72, 13901.31, 16073.52, 6277.20, 71792.37, 45677.51, -187500.02, 51105.61, 0.000, 0.000, 0.000, 23:07:09.393
41, 18224.43, 13876.37, 16120.70, 5636.22, 71503.54, 45700.51, -187500.02, 51082.18, 0.000, 0.000, 0.000, 23:07:09.394
42, 18238.78, 13908.84, 16136.24, 4976.19, 71532.60, 45741.86, -187500.02, 51144.05, 0.000, 0.000, 0.000, 23:07:09.394
43, 18225.23, 13972.92, 16112.97, 5200.20, 71833.81, 45755.83, -187500.02, 51208.87, 0.000, 0.000, 0.000, 23:07:09.395
44, 18195.17, 13968.23, 16077.12, 6047.38, 72003.82, 45716.80, -187500.02, 51179.48, 0.000, 0.000, 0.000, 23:07:09.395
45, 18183.77, 13898.16, 16065.90, 6373.49, 71792.35, 45663.59, -187500.02, 51094.41, 0.000, 0.000, 0.000, 23:07:09.395
46, 18225.37, 13875.87, 16114.51, 5738.23, 71499.12, 45674.85, -187500.02, 51071.23, 0.000, 0.000, 0.000, 23:07:09.395
47, 18247.29, 13916.69, 16147.53, 5058.83, 71541.31, 45739.00, -187500.02, 51146.40, 0.000, 0.000, 0.000, 23:07:09.395
48, 18227.42, 13968.28, 16115.45, 5267.43, 71839.45, 45750.06, -187500.02, 51198.82, 0.000, 0.000, 0.000, 23:07:09.396
49, 18196.51, 13967.13, 16069.58, 6082.45, 71991.97, 45715.13, -187500.02, 51166.52, 0.262, 0.902, 0.290, 23:07:09.396
50, 18191.08, 13909.38, 16087.87, 6377.94, 71781.41, 45679.01, -187500.02, 51086.56, 0.000, 0.000, 0.000, 23:07:09.396
51, 18226.84, 13885.13, 16136.37, 5745.94, 71502.60, 45694.96, -187500.02, 51077.45, 0.000, 0.000, 0.000, 23:07:09.396
52, 18247.20, 13918.34, 16160.40, 5077.60, 71540.24, 45726.39, -187500.02, 51142.11, 0.000, 0.000, 0.000, 23:07:09.396
53, 18225.01, 13968.68, 16114.89, 5282.83, 71835.06, 45726.68, -187500.02, 51190.66, 0.000, 0.000, 0.000, 23:07:09.397
54, 18202.92, 13969.42, 16076.11, 6082.49, 71990.70, 45705.00, -187500.02, 51150.36, 0.000, 0.000, 0.000, 23:07:09.397
55, 18198.05, 13907.21, 16086.39, 6370.54, 71785.02, 45662.40, -187500.02, 51073.69, 0.000, 0.000, 0.000, 23:07:09.397
56, 18224.00, 13873.84, 16122.38, 5748.67, 71500.79, 45665.42, -187500.02, 51055.16, 0.000, 0.000, 0.000, 23:07:09.397
57, 18250.11, 13917.85, 16152.96, 5084.04, 71529.58, 45721.83, -187500.02, 51140.57, 0.000, 0.000, 0.000, 23:07:09.397
58, 18235.63, 13973.82, 16132.95, 5282.14, 71831.04, 45738.06, -187500.02, 51199.33, 0.000, 0.000, 0.000, 23:07:09.397
59, 18202.90, 13972.46, 16090.73, 6080.41, 71996.71, 45704.87, -187500.02, 51161.98, 0.268, 0.902, 0.292, 23:07:09.398
60, 18187.61, 13905.33, 16072.87, 6382.63, 71793.22, 45668.37, -187500.02, 51079.34, 0.000, 0.000, 0.000, 23:07:09.398
61, 18218.26, 13877.66, 16121.13, 5768.34, 71510.83, 45675.16, -187500.02, 51060.61, 0.000, 0.000, 0.000, 23:07:09.398
62, 18242.91, 13915.26, 16150.03, 5093.72, 71546.84, 45714.21, -187500.02, 51138.98, 0.000, 0.000, 0.000, 23:07:09.398
63, 18215.53, 13950.73, 16110.04, 5314.60, 71836.29, 45740.61, -187500.02, 51200.20, 0.000, 0.000, 0.000, 23:07:09.398
64, 18193.56, 13954.22, 16066.28, 6124.24, 71991.34, 45699.68, -187500.02, 51156.77, 0.000, 0.000, 0.000, 23:07:09.399
65, 18187.28, 13896.30, 16058.79, 6424.99, 71794.90, 45651.40, -187500.02, 51067.39, 0.000, 0.000, 0.000, 23:07:09.399
66, 18219.22, 13869.48, 16108.39, 5823.99, 71515.66, 45660.66, -187500.02, 51049.64, 0.000, 0.000, 0.000, 23:07:09.399
67, 18250.27, 13916.82, 16153.87, 5153.71, 71529.89, 45709.83, -187500.02, 51124.41, 0.000, 0.000, 0.000, 23:07:09.399
68, 18231.04, 13969.04, 16125.31, 5350.67, 71826.95, 45719.64, -187500.02, 51180.53, 0.000, 0.000, 0.000, 23:07:09.399
69, 18193.40, 13965.84, 16071.24, 6157.10, 71986.54, 45688.30, -187500.02, 51146.73, 0.270, 0.906, 0.292, 23:07:09.399
70, 18182.94, 13905.13, 16075.51, 6461.40, 71790.67, 45668.50, -187500.02, 51078.61, 0.000, 0.000, 0.000, 23:07:09.400
71, 18224.67, 13885.15, 16126.31, 5840.26, 71505.93, 45678.56, -187500.02, 51065.09, 0.000, 0.000, 0.000, 23:07:09.400
72, 18246.76, 13919.86, 16146.36, 5170.36, 71527.77, 45717.12, -187500.02, 51119.87, 0.000, 0.000, 0.000, 23:07:09.400
73, 18221.86, 13964.63, 16121.75, 5367.35, 71817.52, 45722.19, -187500.02, 51174.56, 0.000, 0.000, 0.000, 23:07:09.400
74, 18181.67, 13952.61, 16077.41, 6169.71, 71968.79, 45688.28, -187500.02, 51135.00, 0.000, 0.000, 0.000, 23:07:09.400
75, 18182.05, 13897.49, 16085.66, 6457.62, 71768.41, 45662.40, -187500.02, 51081.47, 0.000, 0.000, 0.000, 23:07:09.400
76, 18216.96, 13869.44, 16131.99, 5841.99, 71506.23, 45654.96, -187500.02, 51077.11, 0.000, 0.000, 0.000, 23:07:09.401
77, 18236.77, 13900.79, 16148.80, 5188.60, 71531.01, 45698.45, -187500.02, 51123.42, 0.000, 0.000, 0.000, 23:07:09.401
78, 18213.68, 13944.67, 16117.84, 5405.57, 71829.48, 45717.72, -187500.02, 51168.98, 0.000, 0.000, 0.000, 23:07:09.401
79, 18190.47, 13948.40, 16077.86, 6215.55, 71990.14, 45690.36, -187500.02, 51150.65, 0.264, 0.904, 0.292, 23:07:09.401
80, 18203.04, 13904.10, 16084.20, 6501.90, 71792.17, 45661.46, -187500.02, 51096.22, 0.000, 0.000, 0.000, 23:07:09.401
81, 18240.10, 13876.19, 16131.77, 5898.25, 71521.29, 45677.71, -187500.02, 51075.79, 0.000, 0.000, 0.000, 23:07:09.401
82, 18255.41, 13906.38, 16163.02, 5255.30, 71546.50, 45716.76, -187500.02, 51135.94, 0.000, 0.000, 0.000, 23:07:09.401
83, 18243.16, 13961.73, 16141.56, 5466.90, 71831.17, 45731.73, -187500.02, 51193.83, 0.000, 0.000, 0.000, 23:07:09.402
84, 18229.17, 13975.23, 16108.43, 6234.26, 71990.52, 45696.24, -187500.02, 51168.26, 0.000, 0.000, 0.000, 23:07:09.402
85, 18223.73, 13916.93, 16088.32, 6501.99, 71798.56, 45664.81, -187500.02, 51083.17, 0.000, 0.000, 0.000, 23:07:09.402
86, 18241.57, 13878.02, 16121.82, 5916.08, 71528.58, 45675.59, -187500.02, 51050.18, 0.000, 0.000, 0.000, 23:07:09.402
87, 18266.36, 13916.49, 16171.35, 5280.29, 71558.41, 45714.28, -187500.02, 51120.07, 0.000, 0.000, 0.000, 23:07:09.402
88, 18265.11, 13983.09, 16162.61, 5459.95, 71845.99, 45722.28, -187500.02, 51189.65, 0.000, 0.000, 0.000, 23:07:09.402
89, 18231.11, 13975.85, 16110.87, 6243.98, 71994.61, 45678.22, -187500.02, 51146.09, 0.262, 0.900, 0.288, 23:07:09.403
90, 18228.99, 13918.61, 16115.03, 6524.72, 71797.80, 45651.85, -187500.02, 51075.79, 0.000, 0.000, 0.000, 23:07:09.403
91, 18261.84, 13890.07, 16156.71, 5919.93, 71521.02, 45665.64, -187500.02, 51062.74, 0.000, 0.000, 0.000, 23:07:09.403
92, 18276.35, 13921.98, 16178.28, 5285.41, 71559.24, 45691.43, -187500.02, 51119.67, 0.000, 0.000, 0.000, 23:07:09.403
93, 18257.89, 13969.08, 16149.02, 5498.13, 71848.88, 45716.38, -187500.02, 51168.59, 0.000, 0.000, 0.000, 23:07:09.403
94, 18241.01, 13982.56, 16113.98, 6257.84, 72005.31, 45699.70, -187500.02, 51140.95, 0.000, 0.000, 0.000, 23:07:09.403
95, 18231.20, 13921.85, 16100.34, 6526.93, 71797.58, 45651.34, -187500.02, 51061.73, 0.000, 0.000, 0.000, 23:07:09.403
96, 18268.30, 13899.19, 16150.61, 5919.46, 71530.23, 45664.93, -187500.02, 51056.46, 0.000, 0.000, 0.000, 23:07:09.404
97, 18293.07, 13938.70, 16179.29, 5262.92, 71562.30, 45721.65, -187500.02, 51133.73, 0.000, 0.000, 0.000, 23:07:09.404
98, 18266.20, 13977.57, 16137.65, 5475.66, 71837.70, 45722.73, -187500.02, 51174.21, 0.000, 0.000, 0.000, 23:07:09.404
99, 18242.60, 13982.65, 16097.95, 6251.09, 71979.97, 45689.04, -187500.02, 51147.85, 0.270, 0.904, 0.284, 23:07:09.404
100, 18248.84, 13938.84, 16103.65, 6509.41, 71773.15, 45665.48, -187500.02, 51067.34, 0.000, 0.000, 0.000, 23:07:09.404
101, 18265.38, 13901.80, 16138.03, 5915.86, 71498.84, 45670.74, -187500.02, 51035.60, 0.000, 0.000, 0.000, 23:07:09.404
102, 18289.98, 13937.36, 16165.03, 5294.30, 71521.24, 45707.28, -187500.02, 51100.69, 0.000, 0.000, 0.000, 23:07:09.405
103, 18281.25, 13991.59, 16140.89, 5491.24, 71815.73, 45711.98, -187500.02, 51167.41, 0.000, 0.000, 0.000, 23:07:09.405
104, 18243.96, 13985.22, 16094.46, 6275.72, 71978.05, 45666.91, -187500.02, 51128.81, 0.000, 0.000, 0.000, 23:07:09.405
105, 18247.52, 13937.83, 16112.72, 6540.10, 71781.57, 45660.84, -187500.02, 51057.57, 0.000, 0.000, 0.000, 23:07:09.405
106, 18275.86, 13910.41, 16153.69, 5934.97, 71514.76, 45655.09, -187500.02, 51041.23, 0.000, 0.000, 0.000, 23:07:09.405
107, 18288.00, 13937.65, 16165.34, 5318.44, 71545.56, 45684.86, -187500.02, 51090.07, 0.000, 0.000, 0.000, 23:07:09.405
108, 18276.04, 13993.47, 16150.50, 5526.49, 71822.61, 45708.45, -187500.02, 51134.98, 0.000, 0.000, 0.000, 23:07:09.406
109, 18254.09, 13992.77, 16114.87, 6273.31, 71958.33, 45670.38, -187500.02, 51110.08, 0.000, 0.000, 0.000, 23:07:09.406
110, 18260.28, 13948.23, 16119.72, 6515.85, 71764.20, 45654.58, -187500.02, 51055.50, 0.280, 0.902, 0.284, 23:07:09.406
111, 18277.29, 13913.78, 16150.57, 5931.93, 71510.18, 45664.43, -187500.02, 51033.01, 0.000, 0.000, 0.000, 23:07:09.406
112, 18298.32, 13953.32, 16183.00, 5332.43, 71550.97, 45677.09, -187500.02, 51090.66, 0.000, 0.000, 0.000, 23:07:09.406
113, 18280.17, 13996.51, 16149.78, 5550.03, 71829.85, 45717.79, -187500.02, 51156.08, 0.000, 0.000, 0.000, 23:07:09.407
114, 18240.59, 13979.61, 16093.95, 6306.39, 71953.62, 45670.82, -187500.02, 51098.14, 0.000, 0.000, 0.000, 23:07:09.407
115, 18248.81, 13934.57, 16110.40, 6538.78, 71754.64, 45634.37, -187500.02, 51007.75, 0.000, 0.000, 0.000, 23:07:09.407
116, 18273.94, 13908.80, 16145.45, 5947.33, 71512.91, 45647.65, -187500.02, 50996.26, 0.000, 0.000, 0.000, 23:07:09.407
117, 18274.36, 13923.71, 16147.08, 5386.35, 71548.02, 45673.80, -187500.02, 51063.59, 0.000, 0.000, 0.000, 23:07:09.407
118, 18266.74, 13977.42, 16136.24, 5598.20, 71825.38, 45687.90, -187500.02, 51126.55, 0.000, 0.000, 0.000, 23:07:09.407
119, 18248.75, 13982.63, 16103.85, 6312.13, 71960.61, 45655.65, -187500.02, 51100.47, 0.000, 0.000, 0.000, 23:07:09.408
120, 18248.52, 13929.72, 16100.47, 6530.96, 71757.19, 45630.86, -187500.02, 51040.68, 0.282, 0.902, 0.286, 23:07:09.408
121, 18279.17, 13905.74, 16149.22, 5959.29, 71518.07, 45642.44, -187500.02, 51034.71, 0.000, 0.000, 0.000, 23:07:09.865
122, 18293.74, 13938.39, 16171.13, 5400.81, 71553.23, 45692.39, -187500.02, 51091.95, 0.000, 0.000, 0.000, 23:07:09.865
123, 18286.39, 13995.52, 16155.04, 5602.44, 71812.73, 45711.46, -187500.02, 51142.53, 0.000, 0.000, 0.000, 23:07:09.866
124, 18253.17, 13987.52, 16117.26, 6315.60, 71945.03, 45664.93, -187500.02, 51108.69, 0.000, 0.000, 0.000, 23:07:09.866
125, 18254.51, 13941.77, 16127.92, 6539.63, 71756.95, 45650.62, -187500.02, 51053.68, 0.000, 0.000, 0.000, 23:07:09.867
126, 18286.81, 13923.21, 16174.19, 5958.95, 71530.68, 45668.46, -187500.02, 51035.82, 0.000, 0.000, 0.000, 23:07:09.867
127, 18296.67, 13944.36, 16186.31, 5396.90, 71572.20, 45693.82, -187500.02, 51079.61, 0.000, 0.000, 0.000, 23:07:09.867
128, 18281.67, 13994.61, 16161.12, 5618.49, 71838.64, 45706.25, -187500.02, 51131.83, 0.000, 0.000, 0.000, 23:07:09.867
129, 18245.68, 13985.33, 16105.01, 6346.42, 71969.48, 45650.06, -187500.02, 51083.93, 0.000, 0.000, 0.000, 23:07:09.868
130, 18250.38, 13942.57, 16112.77, 6564.48, 71775.92, 45613.72, -187500.02, 51027.00, 0.278, 0.900, 0.286, 23:07:09.868
131, 18275.03, 13915.55, 16160.56, 5996.55, 71542.97, 45673.93, -187500.02, 51034.91, 0.000, 0.000, 0.000, 23:07:09.868
132, 18290.63, 13946.71, 16180.36, 5442.81, 71578.53, 45703.39, -187500.02, 51089.22, 0.000, 0.000, 0.000, 23:07:09.868
133, 18275.99, 13995.99, 16149.89, 5652.40, 71832.65, 45709.76, -187500.02, 51138.51, 0.000, 0.000, 0.000, 23:07:09.869
134, 18245.30, 13987.79, 16111.74, 6365.22, 71947.52, 45674.02, -187500.02, 51091.62, 0.000, 0.000, 0.000, 23:07:09.869
135, 18255.32, 13945.32, 16122.47, 6563.50, 71749.41, 45640.00, -187500.02, 51019.53, 0.000, 0.000, 0.000, 23:07:09.869
136, 18284.96, 13922.79, 16159.22, 5994.40, 71507.99, 45666.27, -187500.02, 51013.05, 0.000, 0.000, 0.000, 23:07:09.870
137, 18295.06, 13947.06, 16171.22, 5437.67, 71545.31, 45704.13, -187500.02, 51080.80, 0.000, 0.000, 0.000, 23:07:09.870
138, 18274.99, 13985.73, 16143.08, 5659.73, 71790.83, 45694.50, -187500.02, 51118.41, 0.000, 0.000, 0.000, 23:07:09.870
139, 18257.26, 13996.84, 16125.46, 6379.81, 71936.34, 45668.75, -187500.02, 51098.86, 0.000, 0.000, 0.000, 23:07:09.871
140, 18249.60, 13943.06, 16119.94, 6626.60, 71748.52, 45644.25, -187500.02, 51035.33, 0.272, 0.900, 0.288, 23:07:09.871
141, 18261.06, 13901.91, 16143.21, 6063.98, 71503.18, 45666.87, -187500.02, 51005.43, 0.000, 0.000, 0.000, 23:07:09.871
142, 18278.74, 13933.21, 16168.16, 5483.37, 71534.88, 45693.56, -187500.02, 51066.05, 0.000, 0.000, 0.000, 23:07:09.871
143, 18268.15, 13984.93, 16156.00, 5701.89, 71809.52, 45707.89, -187500.02, 51142.60, 0.000, 0.000, 0.000, 23:07:09.871
144, 18245.93, 13988.91, 16122.80, 6448.10, 71943.16, 45679.23, -187500.02, 51107.39, 0.000, 0.000, 0.000, 23:07:09.872
145, 18247.27, 13940.18, 16120.28, 6697.95, 71753.99, 45652.27, -187500.02, 51025.14, 0.000, 0.000, 0.000, 23:07:09.872
146, 18266.81, 13906.45, 16152.91, 6148.32, 71514.47, 45650.80, -187500.02, 51003.28, 0.000, 0.000, 0.000, 23:07:09.872
147, 18292.24, 13945.10, 16176.61, 5568.80, 71553.59, 45669.08, -187500.02, 51069.89, 0.000, 0.000, 0.000, 23:07:09.872
148, 18273.15, 13987.77, 16144.40, 5789.77, 71821.74, 45701.89, -187500.02, 51118.37, 0.000, 0.000, 0.000, 23:07:09.872
149, 18240.32, 13985.13, 16107.18, 6514.37, 71935.73, 45684.30, -187500.02, 51084.95, 0.000, 0.000, 0.000, 23:07:09.872
150, 18233.61, 13932.29, 16109.37, 6742.34, 71746.68, 45650.80, -187500.02, 51024.61, 0.268, 0.906, 0.292, 23:07:09.872
151, 18251.56, 13896.82, 16133.65, 6192.06, 71502.98, 45646.73, -187500.02, 51000.29, 0.000, 0.000, 0.000, 23:07:09.873
152, 18275.50, 13933.43, 16172.43, 5652.15, 71544.96, 45696.73, -187500.02, 51058.82, 0.000, 0.000, 0.000, 23:07:09.873
153, 18269.71, 13988.35, 16155.57, 5870.82, 71805.55, 45715.44, -187500.02, 51117.52, 0.000, 0.000, 0.000, 23:07:09.873
154, 18243.96, 13987.97, 16117.55, 6580.15, 71940.34, 45685.15, -187500.02, 51089.56, 0.000, 0.000, 0.000, 23:07:09.873
155, 18249.28, 13942.93, 16128.37, 6804.74, 71759.00, 45662.49, -187500.02, 51024.49, 0.000, 0.000, 0.000, 23:07:09.873
156, 18263.30, 13907.79, 16161.94, 6267.97, 71520.44, 45671.07, -187500.02, 51015.60, 0.000, 0.000, 0.000, 23:07:09.873
157, 18276.26, 13933.29, 16177.07, 5744.91, 71550.28, 45701.92, -187500.02, 51078.79, 0.000, 0.000, 0.000, 23:07:09.874
158, 18269.89, 13989.49, 16152.78, 5984.21, 71817.85, 45717.70, -187500.02, 51126.13, 0.000, 0.000, 0.000, 23:07:09.874
159, 18240.03, 13991.70, 16111.81, 6710.13, 71933.59, 45685.06, -187500.02, 51080.84, 0.000, 0.000, 0.000, 23:07:09.874
160, 18235.49, 13940.18, 16118.09, 6957.20, 71736.70, 45647.54, -187500.02, 51008.22, 0.276, 0.902, 0.290, 23:07:09.874
161, 18260.35, 13905.18, 16150.79, 6435.42, 71506.11, 45666.71, -187500.02, 50995.73, 0.000, 0.000, 0.000, 23:07:09.874
162, 18281.63, 13938.41, 16170.21, 5917.02, 71540.63, 45701.14, -187500.02, 51067.27, 0.000, 0.000, 0.000, 23:07:09.874
163, 18272.06, 13990.16, 16156.47, 6164.10, 71809.00, 45706.30, -187500.02, 51116.52, 0.000, 0.000, 0.000, 23:07:09.875
164, 18242.73, 13982.85, 16120.77, 6878.84, 71926.32, 45652.03, -187500.02, 51068.73, 0.000, 0.000, 0.000, 23:07:09.875
165, 18242.35, 13935.91, 16119.70, 7095.54, 71736.89, 45627.08, -187500.02, 51004.94, 0.000, 0.000, 0.000, 23:07:09.875
166, 18270.72, 13914.50, 16163.26, 6564.62, 71517.22, 45670.71, -187500.02, 50995.93, 0.000, 0.000, 0.000, 23:07:09.875
167, 18293.74, 13951.42, 16185.97, 6055.78, 71570.41, 45714.03, -187500.02, 51061.46, 0.000, 0.000, 0.000, 23:07:09.875
168, 18269.31, 13986.45, 16150.72, 6316.83, 71823.04, 45709.36, -187500.02, 51092.55, 0.000, 0.000, 0.000, 23:07:09.875
169, 18247.47, 13986.13, 16118.80, 7014.27, 71926.66, 45677.93, -187500.02, 51069.24, 0.000, 0.000, 0.000, 23:07:09.876
170, 18252.88, 13945.01, 16130.69, 7196.90, 71738.37, 45655.36, -187500.02, 51010.12, 0.276, 0.906, 0.290, 23:07:09.876
171, 18280.46, 13924.42, 16169.97, 6653.85, 71519.79, 45660.86, -187500.02, 51002.34, 0.000, 0.000, 0.000, 23:07:09.876
172, 18305.54, 13964.12, 16205.33, 6149.90, 71572.02, 45703.10, -187500.02, 51078.52, 0.000, 0.000, 0.000, 23:07:09.876
173, 18290.10, 14008.58, 16175.71, 6404.15, 71826.63, 45708.60, -187500.02, 51123.67, 0.000, 0.000, 0.000, 23:07:09.876
174, 18260.97, 14004.17, 16131.83, 7105.69, 71932.29, 45664.37, -187500.02, 51071.63, 0.000, 0.000, 0.000, 23:07:09.876
175, 18269.38, 13960.94, 16143.17, 7304.80, 71750.17, 45650.20, -187500.02, 51020.71, 0.000, 0.000, 0.000, 23:07:09.877
176, 18296.96, 13940.69, 16178.04, 6772.11, 71527.19, 45669.75, -187500.02, 51020.05, 0.000, 0.000, 0.000, 23:07:09.877
177, 18314.75, 13972.50, 16205.44, 6278.58, 71574.58, 45701.22, -187500.02, 51080.44, 0.000, 0.000, 0.000, 23:07:09.877
178, 18306.17, 14026.90, 16193.15, 6522.02, 71817.83, 45714.37, -187500.02, 51141.26, 0.000, 0.000, 0.000, 23:07:09.877
179, 18291.17, 14037.28, 16164.13, 7189.06, 71933.19, 45685.27, -187500.02, 51126.73, 0.000, 0.000, 0.000, 23:07:09.877
180, 18278.16, 13980.52, 16154.14, 7405.15, 71762.24, 45654.38, -187500.02, 51063.14, 0.000, 0.000, 0.000, 23:07:09.878
181, 18290.97, 13941.70, 16176.69, 6902.71, 71529.76, 45665.82, -187500.02, 51044.99, 0.268, 0.900, 0.292, 23:07:09.878
182, 18306.93, 13970.47, 16196.83, 6397.52, 71563.96, 45692.46, -187500.02, 51096.53, 0.000, 0.000, 0.000, 23:07:09.878
183, 18304.80, 14030.77, 16180.79, 6624.14, 71819.93, 45726.73, -187500.02, 51151.21, 0.000, 0.000, 0.000, 23:07:09.878
184, 18276.13, 14029.47, 16156.80, 7339.71, 71951.67, 45703.21, -187500.02, 51121.21, 0.000, 0.000, 0.000, 23:07:09.878
185, 18262.27, 13970.44, 16145.47, 7585.27, 71754.46, 45661.86, -187500.02, 51047.23, 0.000, 0.000, 0.000, 23:07:09.878
186, 18297.61, 13957.57, 16194.82, 7042.03, 71531.91, 45680.01, -187500.02, 51051.41, 0.000, 0.000, 0.000, 23:07:09.878
187, 18308.71, 13985.78, 16214.96, 6531.87, 71584.43, 45724.09, -187500.02, 51125.61, 0.000, 0.000, 0.000, 23:07:09.879
188, 18290.95, 14028.69, 16190.69, 6783.89, 71838.23, 45730.80, -187500.02, 51169.64, 0.000, 0.000, 0.000, 23:07:09.879
189, 18262.67, 14024.02, 16145.80, 7493.40, 71952.14, 45694.50, -187500.02, 51126.02, 0.000, 0.000, 0.000, 23:07:09.879
190, 18266.72, 13983.47, 16155.37, 7701.41, 71762.51, 45665.82, -187500.02, 51068.39, 0.000, 0.000, 0.000, 23:07:09.879
191, 18290.23, 13954.26, 16192.25, 7166.77, 71542.66, 45682.74, -187500.02, 51067.68, 0.264, 0.900, 0.296, 23:07:09.879
192, 18312.07, 13987.16, 16219.41, 6652.93, 71592.88, 45728.07, -187500.02, 51131.80, 0.000, 0.000, 0.000, 23:07:09.879
193, 18295.86, 14029.09, 16199.56, 6897.61, 71844.98, 45738.64, -187500.02, 51160.91, 0.000, 0.000, 0.000, 23:07:09.880
194, 18269.47, 14024.58, 16163.95, 7600.89, 71959.23, 45702.25, -187500.02, 51112.94, 0.000, 0.000, 0.000, 23:07:09.880
195, 18279.70, 13989.24, 16178.59, 7803.71, 71775.77, 45668.93, -187500.02, 51062.18, 0.000, 0.000, 0.000, 23:07:09.880
196, 18297.72, 13959.22, 16202.98, 7274.69, 71555.82, 45657.44, -187500.02, 51047.54, 0.000, 0.000, 0.000, 23:07:09.880
197, 18300.33, 13972.70, 16207.67, 6803.58, 71590.91, 45726.77, -187500.02, 51118.64, 0.000, 0.000, 0.000, 23:07:09.880
198, 18289.76, 14018.43, 16183.85, 7059.80, 71825.45, 45727.87, -187500.02, 51163.61, 0.000, 0.000, 0.000, 23:07:09.880
199, 18275.41, 14028.11, 16153.92, 7728.74, 71939.67, 45702.03, -187500.02, 51130.02, 0.000, 0.000, 0.000, 23:07:09.880
200, 18280.17, 13986.00, 16161.34, 7911.82, 71762.84, 45662.73, -187500.02, 51058.94, 0.000, 0.000, 0.000, 23:07:09.881
201, 18305.70, 13963.13, 16199.29, 7383.70, 71553.09, 45701.27, -187500.02, 51056.01, 0.266, 0.894, 0.296, 23:07:09.881
202, 18311.96, 13987.74, 16203.94, 6905.77, 71595.36, 45733.50, -187500.02, 51114.44, 0.000, 0.000, 0.000, 23:07:09.881
203, 18291.19, 14027.02, 16171.33, 7160.36, 71840.49, 45732.50, -187500.02, 51155.18, 0.000, 0.000, 0.000, 23:07:09.881
204, 18272.84, 14026.55, 16156.15, 7840.97, 71947.29, 45705.32, -187500.02, 51126.84, 0.000, 0.000, 0.000, 23:07:09.881
205, 18287.24, 13991.61, 16170.97, 8017.24, 71766.60, 45689.73, -187500.02, 51073.31, 0.000, 0.000, 0.000, 23:07:09.881
206, 18303.17, 13957.79, 16198.76, 7499.52, 71548.47, 45688.60, -187500.02, 51062.76, 0.000, 0.000, 0.000, 23:07:09.882
207, 18310.97, 13979.29, 16216.64, 7027.59, 71595.63, 45706.90, -187500.02, 51112.63, 0.000, 0.000, 0.000, 23:07:09.882
208, 18303.93, 14033.79, 16199.63, 7270.15, 71835.69, 45711.64, -187500.02, 51153.71, 0.000, 0.000, 0.000, 23:07:09.882
209, 18284.42, 14038.35, 16169.09, 7920.43, 71940.30, 45688.77, -187500.02, 51120.96, 0.000, 0.000, 0.000, 23:07:09.882
210, 18292.06, 14000.28, 16179.24, 8088.56, 71761.13, 45668.75, -187500.02, 51073.58, 0.000, 0.000, 0.000, 23:07:09.882
211, 18299.91, 13961.53, 16194.44, 7584.17, 71561.92, 45668.66, -187500.02, 51056.14, 0.272, 0.902, 0.288, 23:07:09.882
212, 18311.04, 13984.68, 16212.48, 7121.00, 71599.67, 45673.98, -187500.02, 51104.00, 0.000, 0.000, 0.000, 23:07:09.883
213, 18302.30, 14034.79, 16196.03, 7354.60, 71838.10, 45692.60, -187500.02, 51143.92, 0.000, 0.000, 0.000, 23:07:09.883
214, 18270.34, 14029.16, 16164.31, 8014.02, 71940.48, 45694.65, -187500.02, 51116.83, 0.000, 0.000, 0.000, 23:07:09.883
215, 18266.49, 13981.22, 16167.78, 8204.30, 71758.69, 45658.27, -187500.02, 51060.57, 0.000, 0.000, 0.000, 23:07:09.883
216, 18301.18, 13968.77, 16213.80, 7680.46, 71550.30, 45674.65, -187500.02, 51062.58, 0.000, 0.000, 0.000, 23:07:09.883
217, 18306.50, 13989.46, 16221.89, 7213.67, 71599.43, 45705.61, -187500.02, 51122.04, 0.000, 0.000, 0.000, 23:07:09.883
218, 18290.10, 14030.03, 16197.48, 7464.83, 71839.42, 45704.02, -187500.02, 51158.27, 0.000, 0.000, 0.000, 23:07:09.884
219, 18266.61, 14028.47, 16164.51, 8113.19, 71940.56, 45677.98, -187500.02, 51127.51, 0.000, 0.000, 0.000, 23:07:09.884
220, 18273.60, 13989.93, 16178.55, 8281.66, 71772.73, 45668.05, -187500.02, 51076.35, 0.000, 0.000, 0.000, 23:07:09.884
221, 18309.56, 13973.71, 16219.68, 7751.92, 71557.68, 45683.14, -187500.02, 51071.01, 0.272, 0.904, 0.288, 23:07:09.884
222, 18308.89, 13983.65, 16228.21, 7284.95, 71603.99, 45701.49, -187500.02, 51132.09, 0.000, 0.000, 0.000, 23:07:09.884
223, 18293.79, 14022.70, 16211.23, 7531.31, 71834.37, 45705.23, -187500.02, 51176.02, 0.000, 0.000, 0.000, 23:07:09.884
224, 18267.52, 14014.99, 16174.50, 8201.44, 71929.88, 45677.91, -187500.02, 51122.86, 0.000, 0.000, 0.000, 23:07:09.884
225, 18278.50, 13982.38, 16186.44, 8379.31, 71754.04, 45655.96, -187500.02, 51054.96, 0.000, 0.000, 0.000, 23:07:09.885
226, 18296.65, 13953.14, 16216.30, 7855.72, 71549.48, 45663.63, -187500.02, 51046.58, 0.000, 0.000, 0.000, 23:07:09.885
227, 18304.11, 13973.62, 16232.37, 7354.80, 71586.80, 45694.96, -187500.02, 51113.39, 0.000, 0.000, 0.000, 23:07:09.885
228, 18282.14, 14013.60, 16195.72, 7592.62, 71829.52, 45702.75, -187500.02, 51156.75, 0.000, 0.000, 0.000, 23:07:09.885
229, 18263.12, 14012.53, 16157.92, 8265.29, 71938.95, 45672.95, -187500.02, 51111.71, 0.000, 0.000, 0.000, 23:07:09.885
230, 18261.51, 13969.71, 16163.60, 8456.18, 71764.38, 45636.85, -187500.02, 51043.05, 0.000, 0.000, 0.000, 23:07:09.885
231, 18280.96, 13944.38, 16212.23, 7921.30, 71547.80, 45650.38, -187500.02, 51039.45, 0.268, 0.904, 0.284, 23:07:09.886
232, 18294.99, 13969.19, 16229.82, 7405.42, 71578.17, 45707.84, -187500.02, 51108.07, 0.000, 0.000, 0.000, 23:07:09.886
233, 18282.50, 14017.92, 16201.39, 7618.23, 71821.16, 45732.05, -187500.02, 51156.88, 0.000, 0.000, 0.000, 23:07:09.886
234, 18262.47, 14028.20, 16167.31, 8278.95, 71931.30, 45676.97, -187500.02, 51125.50, 0.000, 0.000, 0.000, 23:07:09.886
235, 18254.89, 13976.72, 16162.32, 8467.49, 71748.65, 45652.86, -187500.02, 51056.86, 0.000, 0.000, 0.000, 23:07:09.886
236, 18282.56, 13952.90, 16203.70, 7932.97, 71544.16, 45683.90, -187500.02, 51046.62, 0.000, 0.000, 0.000, 23:07:09.886
237, 18299.06, 13984.12, 16236.13, 7421.67, 71595.72, 45730.57, -187500.02, 51116.61, 0.000, 0.000, 0.000, 23:07:09.887
238, 18272.57, 14015.86, 16207.63, 7656.61, 71832.34, 45727.04, -187500.02, 51154.91, 0.000, 0.000, 0.000, 23:07:09.887
239, 18247.29, 14012.06, 16179.80, 8312.79, 71942.95, 45698.83, -187500.02, 51116.74, 0.000, 0.000, 0.000, 23:07:09.887
240, 18241.39, 13962.20, 16180.27, 8494.74, 71759.65, 45683.59, -187500.02, 51063.34, 0.000, 0.000, 0.000, 23:07:09.887
241, 18264.35, 13934.66, 16222.20, 7969.51, 71552.73, 45688.02, -187500.02, 51054.20, 0.000, 0.000, 0.000, 23:07:10.345
242, 18282.32, 13963.29, 16241.74, 7461.06, 71601.60, 45720.69, -187500.02, 51111.15, 0.266, 0.906, 0.282, 23:07:10.345
243, 18244.97, 13987.05, 16200.28, 7690.10, 71836.70, 45716.56, -187500.02, 51142.64, 0.000, 0.000, 0.000, 23:07:10.346
244, 18201.61, 13972.99, 16177.07, 8340.13, 71943.85, 45692.06, -187500.02, 51121.34, 0.000, 0.000, 0.000, 23:07:10.346
245, 18181.13, 13911.39, 16173.77, 8526.92, 71766.04, 45661.71, -187500.02, 51064.59, 0.000, 0.000, 0.000, 23:07:10.346
246, 18191.71, 13874.60, 16215.68, 8011.69, 71559.20, 45667.16, -187500.02, 51051.98, 0.000, 0.000, 0.000, 23:07:10.347
247, 18203.55, 13899.45, 16230.05, 7521.88, 71596.84, 45700.80, -187500.02, 51100.98, 0.000, 0.000, 0.000, 23:07:10.347
248, 18187.14, 13938.53, 16194.08, 7733.35, 71825.79, 45709.90, -187500.02, 51140.14, 0.000, 0.000, 0.000, 23:07:10.347
249, 18153.51, 13925.54, 16164.20, 8382.04, 71934.70, 45701.02, -187500.02, 51105.83, 0.000, 0.000, 0.000, 23:07:10.347
250, 18147.49, 13881.71, 16164.47, 8551.51, 71753.32, 45672.64, -187500.02, 51048.72, 0.000, 0.000, 0.000, 23:07:10.347
251, 18172.50, 13858.77, 16203.02, 8017.19, 71548.36, 45683.84, -187500.02, 51049.06, 0.000, 0.000, 0.000, 23:07:10.348
252, 18175.81, 13879.85, 16213.60, 7544.14, 71597.62, 45720.09, -187500.02, 51108.54, 0.268, 0.902, 0.286, 23:07:10.348
253, 18161.02, 13924.58, 16196.99, 7774.56, 71824.69, 45727.89, -187500.02, 51159.59, 0.000, 0.000, 0.000, 23:07:10.348
254, 18139.20, 13924.94, 16160.96, 8408.28, 71926.30, 45694.25, -187500.02, 51116.16, 0.000, 0.000, 0.000, 23:07:10.348
255, 18141.93, 13883.74, 16166.70, 8587.99, 71761.41, 45666.29, -187500.02, 51051.02, 0.000, 0.000, 0.000, 23:07:10.348
0, 18162.94, 13857.17, 16196.36, 8092.14, 71555.33, 45675.99, -187500.02, 51032.47, 0.000, 0.000, 0.000, 23:07:10.349
1, 18185.85, 13893.31, 16209.91, 7617.88, 71585.44, 45719.46, -187500.02, 51111.55, 0.000, 0.000, 0.000, 23:07:10.349
2, 18177.76, 13941.48, 16200.41, 7862.54, 71816.13, 45731.04, -187500.02, 51162.45, 0.000, 0.000, 0.000, 23:07:10.349
3, 18174.34, 13957.08, 16184.21, 8496.23, 71925.88, 45711.06, -187500.02, 51130.87, 0.000, 0.000, 0.000, 23:07:10.350
4, 18181.94, 13917.56, 16179.62, 8658.66, 71760.27, 45688.91, -187500.02, 51081.51, 0.000, 0.000, 0.000, 23:07:10.350
5, 18214.39, 13897.96, 16222.16, 8156.55, 71562.23, 45692.08, -187500.02, 51082.34, 0.000, 0.000, 0.000, 23:07:10.350
6, 18228.70, 13926.88, 16249.11, 7709.25, 71613.16, 45710.79, -187500.02, 51131.60, 0.270, 0.900, 0.288, 23:07:10.351
7, 18211.17, 13965.77, 16222.83, 7952.19, 71842.51, 45740.90, -187500.02, 51162.05, 0.000, 0.000, 0.000, 23:07:10.351
8, 18194.97, 13969.35, 16192.12, 8581.01, 71945.95, 45707.48, -187500.02, 51111.64, 0.000, 0.000, 0.000, 23:07:10.351
9, 18197.38, 13928.89, 16195.78, 8742.50, 71777.44, 45678.47, -187500.02, 51058.16, 0.000, 0.000, 0.000, 23:07:10.351
10, 18223.22, 13902.96, 16235.88, 8226.63, 71568.61, 45677.35, -187500.02, 51050.80, 0.000, 0.000, 0.000, 23:07:10.351
11, 18240.72, 13929.70, 16248.85, 7758.92, 71603.41, 45697.76, -187500.02, 51092.38, 0.000, 0.000, 0.000, 23:07:10.351
12, 18226.91, 13972.72, 16229.40, 7992.34, 71836.74, 45735.29, -187500.02, 51131.45, 0.000, 0.000, 0.000, 23:07:10.352
13, 18201.88, 13971.32, 16197.46, 8641.16, 71933.79, 45707.39, -187500.02, 51127.11, 0.000, 0.000, 0.000, 23:07:10.352
14, 18208.42, 13936.27, 16200.75, 8811.42, 71761.79, 45677.96, -187500.02, 51073.46, 0.000, 0.000, 0.000, 23:07:10.352
15, 18240.12, 13918.36, 16232.55, 8305.71, 71558.57, 45689.00, -187500.02, 51074.52, 0.000, 0.000, 0.000, 23:07:10.352
16, 18256.55, 13947.15, 16246.16, 7840.68, 71609.16, 45729.16, -187500.02, 51142.06, 0.270, 0.904, 0.290, 23:07:10.352
17, 18240.01, 13985.62, 16222.74, 8066.65, 71836.05, 45743.16, -187500.02, 51167.12, 0.000, 0.000, 0.000, 23:07:10.352
18, 18210.81, 13977.17, 16182.68, 8696.13, 71934.17, 45698.09, -187500.02, 51116.40, 0.000, 0.000, 0.000, 23:07:10.353
19, 18208.27, 13932.94, 16177.48, 8867.12, 71767.18, 45675.77, -187500.02, 51053.04, 0.000, 0.000, 0.000, 23:07:10.353
20, 18239.00, 13917.34, 16221.84, 8358.37, 71559.60, 45694.96, -187500.02, 51055.41, 0.000, 0.000, 0.000, 23:07:10.353
21, 18249.62, 13944.49, 16233.38, 7890.55, 71610.49, 45714.93, -187500.02, 51115.11, 0.000, 0.000, 0.000, 23:07:10.353
22, 18227.04, 13978.09, 16194.15, 8135.36, 71841.16, 45718.55, -187500.02, 51147.03, 0.000, 0.000, 0.000, 23:07:10.353
23, 18218.77, 13990.94, 16183.78, 8756.94, 71937.09, 45724.16, -187500.02, 51118.17, 0.000, 0.000, 0.000, 23:07:10.354
24, 18220.56, 13950.93, 16197.10, 8915.53, 71775.09, 45711.28, -187500.02, 51070.79, 0.000, 0.000, 0.000, 23:07:10.354
25, 18252.88, 13935.22, 16233.87, 8414.49, 71579.88, 45723.87, -187500.02, 51071.12, 0.000, 0.000, 0.000, 23:07:10.354
26, 18263.50, 13958.84, 16244.13, 7965.92, 71627.66, 45749.95, -187500.02, 51127.96, 0.266, 0.898, 0.292, 23:07:10.354
27, 18238.73, 13983.97, 16214.29, 8211.72, 71855.78, 45746.73, -187500.02, 51160.84, 0.000, 0.000, 0.000, 23:07:10.354
28, 18227.58, 13990.40, 16191.67, 8833.66, 71944.79, 45712.87, -187500.02, 51114.57, 0.000, 0.000, 0.000, 23:07:10.354
29, 18230.17, 13949.41, 16193.91, 8991.88, 71769.86, 45676.21, -187500.02, 51047.98, 0.000, 0.000, 0.000, 23:07:10.355
30, 18254.27, 13930.03, 16233.92, 8496.86, 71579.63, 45719.66, -187500.02, 51042.87, 0.000, 0.000, 0.000, 23:07:10.355
31, 18275.08, 13961.64, 16251.37, 8037.64, 71623.62, 45749.15, -187500.02, 51106.79, 0.000, 0.000, 0.000, 23:07:10.355
32, 18273.65, 14006.85, 16246.97, 8256.94, 71854.02, 45764.17, -187500.02, 51152.59, 0.000, 0.000, 0.000, 23:07:10.355
33, 18255.74, 14012.91, 16218.20, 8875.05, 71953.88, 45731.27, -187500.02, 51105.72, 0.000, 0.000, 0.000, 23:07:10.355
34, 18263.48, 13979.54, 16217.80, 9015.29, 71771.18, 45704.62, -187500.02, 51035.54, 0.000, 0.000, 0.000, 23:07:10.356
35, 18281.65, 13953.03, 16249.96, 8516.19, 71577.19, 45713.43, -187500.02, 51042.35, 0.000, 0.000, 0.000, 23:07:10.356
36, 18278.83, 13959.71, 16247.55, 8097.84, 71609.66, 45719.17, -187500.02, 51093.36, 0.272, 0.904, 0.286, 23:07:10.356
37, 18276.37, 14010.72, 16232.06, 8332.26, 71822.99, 45738.37, -187500.02, 51143.16, 0.000, 0.000, 0.000, 23:07:10.356
38, 18259.90, 14014.28, 16199.45, 8955.32, 71918.73, 45699.50, -187500.02, 51093.49, 0.000, 0.000, 0.000, 23:07:10.357
39, 18251.07, 13959.47, 16189.66, 9127.51, 71741.50, 45692.42, -187500.02, 51034.86, 0.000, 0.000, 0.000, 23:07:10.357
40, 18272.06, 13934.17, 16219.14, 8628.87, 71538.86, 45684.50, -187500.02, 51031.69, 0.000, 0.000, 0.000, 23:07:10.358
41, 18284.02, 13960.07, 16236.04, 8176.31, 71594.09, 45725.57, -187500.02, 51093.27, 0.000, 0.000, 0.000, 23:07:10.358
42, 18263.83, 13996.42, 16217.04, 8415.97, 71827.17, 45738.46, -187500.02, 51136.16, 0.000, 0.000, 0.000, 23:07:10.358
43, 18247.40, 14001.04, 16182.30, 9028.61, 71917.83, 45709.67, -187500.02, 51095.06, 0.000, 0.000, 0.000, 23:07:10.359
44, 18241.88, 13956.81, 16171.71, 9200.29, 71744.72, 45670.78, -187500.02, 51025.68, 0.000, 0.000, 0.000, 23:07:10.359
45, 18270.54, 13940.25, 16194.49, 8712.46, 71538.63, 45692.35, -187500.02, 51010.50, 0.000, 0.000, 0.000, 23:07:10.359
46, 18298.21, 13978.53, 16232.75, 8268.11, 71592.73, 45739.69, -187500.02, 51087.64, 0.000, 0.000, 0.000, 23:07:10.360
47, 18284.53, 14018.92, 16217.00, 8499.16, 71812.45, 45750.20, -187500.02, 51137.48, 0.272, 0.904, 0.278, 23:07:10.360
48, 18260.77, 14017.76, 16194.15, 9107.11, 71916.35, 45725.30, -187500.02, 51098.19, 0.000, 0.000, 0.000, 23:07:10.360
49, 18264.46, 13973.39, 16202.64, 9275.15, 71756.32, 45697.78, -187500.02, 51038.24, 0.000, 0.000, 0.000, 23:07:10.360
50, 18294.81, 13959.76, 16234.72, 8791.72, 71553.36, 45714.66, -187500.02, 51039.29, 0.000, 0.000, 0.000, 23:07:10.360
51, 18320.56, 14000.86, 16259.58, 8333.74, 71596.68, 45756.88, -187500.02, 51109.36, 0.000, 0.000, 0.000, 23:07:10.361
52, 18303.15, 14039.33, 16247.55, 8557.57, 71834.73, 45754.62, -187500.02, 51143.34, 0.000, 0.000, 0.000, 23:07:10.361
53, 18289.74, 14046.60, 16221.53, 9163.72, 71942.44, 45726.10, -187500.02, 51103.93, 0.000, 0.000, 0.000, 23:07:10.361
54, 18294.03, 14008.06, 16214.16, 9308.25, 71785.48, 45719.98, -187500.02, 51048.66, 0.000, 0.000, 0.000, 23:07:10.361
55, 18296.24, 13966.26, 16230.45, 8842.39, 71585.84, 45717.43, -187500.02, 51027.42, 0.000, 0.000, 0.000, 23:07:10.362
56, 18315.60, 13999.03, 16259.62, 8403.16, 71620.59, 45748.61, -187500.02, 51088.89, 0.000, 0.000, 0.000, 23:07:10.362
57, 18300.89, 14038.91, 16233.36, 8634.46, 71840.38, 45752.70, -187500.02, 51115.67, 0.272, 0.904, 0.278, 23:07:10.362
58, 18281.80, 14036.81, 16200.59, 9238.94, 71933.37, 45710.77, -187500.02, 51072.75, 0.000, 0.000, 0.000, 23:07:10.363
59, 18299.17, 14009.74, 16213.49, 9375.91, 71770.73, 45701.61, -187500.02, 51035.96, 0.000, 0.000, 0.000, 23:07:10.363
60, 18312.92, 13978.78, 16230.32, 8876.10, 71569.37, 45704.27, -187500.02, 51027.00, 0.000, 0.000, 0.000, 23:07:10.363
61, 18327.94, 14005.96, 16255.31, 8434.43, 71616.15, 45739.40, -187500.02, 51094.59, 0.000, 0.000, 0.000, 23:07:10.363
62, 18317.46, 14048.23, 16244.29, 8673.79, 71847.73, 45745.28, -187500.02, 51130.60, 0.000, 0.000, 0.000, 23:07:10.363
63, 18285.02, 14035.49, 16196.39, 9294.68, 71936.90, 45698.50, -187500.02, 51076.91, 0.000, 0.000, 0.000, 23:07:10.364
64, 18277.87, 13985.15, 16182.08, 9458.99, 71757.10, 45688.26, -187500.02, 51007.64, 0.000, 0.000, 0.000, 23:07:10.364
65, 18302.14, 13962.49, 16214.31, 8965.24, 71563.22, 45690.47, -187500.02, 51006.77, 0.000, 0.000, 0.000, 23:07:10.364
66, 18311.04, 13984.37, 16238.41, 8531.08, 71610.05, 45722.39, -187500.02, 51075.05, 0.000, 0.000, 0.000, 23:07:10.364
67, 18298.50, 14023.10, 16219.30, 8766.38, 71826.75, 45723.80, -187500.02, 51109.25, 0.272, 0.900, 0.286, 23:07:10.364
68, 18280.93, 14024.18, 16184.12, 9353.85, 71927.46, 45683.34, -187500.02, 51056.81, 0.000, 0.000, 0.000, 23:07:10.365
69, 18268.50, 13974.71, 16170.39, 9505.55, 71772.12, 45652.83, -187500.02, 50992.87, 0.000, 0.000, 0.000, 23:07:10.365
70, 18296.11, 13957.46, 16211.03, 9017.27, 71575.52, 45693.04, -187500.02, 51006.59, 0.000, 0.000, 0.000, 23:07:10.365
71, 18315.22, 13988.53, 16241.20, 8579.11, 71622.23, 45719.84, -187500.02, 51076.95, 0.000, 0.000, 0.000, 23:07:10.365
72, 18305.27, 14033.23, 16220.01, 8821.14, 71843.94, 45723.84, -187500.02, 51115.89, 0.000, 0.000, 0.000, 23:07:10.365
73, 18293.92, 14042.62, 16184.29, 9419.90, 71935.20, 45697.43, -187500.02, 51068.66, 0.000, 0.000, 0.000, 23:07:10.365
74, 18300.13, 14009.29, 16196.54, 9563.77, 71767.18, 45685.00, -187500.02, 51010.52, 0.000, 0.000, 0.000, 23:07:10.366
75, 18325.95, 13993.06, 16235.26, 9065.38, 71580.25, 45708.78, -187500.02, 51015.46, 0.000, 0.000, 0.000, 23:07:10.366
76, 18336.34, 14015.15, 16246.72, 8634.99, 71631.66, 45735.29, -187500.02, 51075.86, 0.000, 0.000, 0.000, 23:07:10.366
77, 18321.84, 14054.20, 16237.22, 8868.34, 71853.28, 45734.59, -187500.02, 51115.42, 0.266, 0.892, 0.282, 23:07:10.367
78, 18291.95, 14049.17, 16204.95, 9469.07, 71933.45, 45705.88, -187500.02, 51065.87, 0.000, 0.000, 0.000, 23:07:10.367
79, 18299.42, 14017.02, 16211.90, 9598.82, 71764.45, 45702.34, -187500.02, 51021.52, 0.000, 0.000, 0.000, 23:07:10.367
80, 18315.67, 13990.87, 16240.84, 9115.24, 71579.36, 45698.05, -187500.02, 51012.87, 0.000, 0.000, 0.000, 23:07:10.368
81, 18324.27, 14012.29, 16253.99, 8694.92, 71621.87, 45729.39, -187500.02, 51073.29, 0.000, 0.000, 0.000, 23:07:10.368
82, 18316.94, 14057.86, 16240.78, 8907.17, 71842.55, 45746.55, -187500.02, 51130.04, 0.000, 0.000, 0.000, 23:07:10.368
83, 18295.44, 14058.87, 16211.00, 9482.30, 71945.88, 45698.52, -187500.02, 51082.41, 0.000, 0.000, 0.000, 23:07:10.368
84, 18291.75, 14013.92, 16199.94, 9621.42, 71781.69, 45680.39, -187500.02, 51039.29, 0.000, 0.000, 0.000, 23:07:10.368
85, 18312.81, 13983.76, 16227.05, 9145.71, 71574.38, 45690.79, -187500.02, 51020.29, 0.000, 0.000, 0.000, 23:07:10.369
86, 18327.78, 14006.85, 16255.44, 8728.38, 71607.34, 45727.87, -187500.02, 51071.50, 0.000, 0.000, 0.000, 23:07:10.369
87, 18316.61, 14049.21, 16238.63, 8960.23, 71826.57, 45730.62, -187500.02, 51111.26, 0.274, 0.890, 0.284, 23:07:10.369
88, 18292.35, 14047.24, 16198.17, 9559.86, 71911.51, 45697.18, -187500.02, 51068.50, 0.000, 0.000, 0.000, 23:07:10.369
89, 18303.91, 14019.55, 16204.19, 9687.49, 71739.35, 45675.81, -187500.02, 51010.84, 0.000, 0.000, 0.000, 23:07:10.369
90, 18328.45, 14000.77, 16235.17, 9178.16, 71558.41, 45691.52, -187500.02, 51007.17, 0.000, 0.000, 0.000, 23:07:10.369
91, 18321.19, 14005.02, 16230.79, 8773.51, 71601.09, 45709.90, -187500.02, 51041.64, 0.000, 0.000, 0.000, 23:07:10.370
92, 18298.01, 14031.96, 16205.55, 9023.71, 71807.84, 45709.25, -187500.02, 51076.86, 0.000, 0.000, 0.000, 23:07:10.370
93, 18286.27, 14039.64, 16189.17, 9590.73, 71884.55, 45671.63, -187500.02, 51048.01, 0.000, 0.000, 0.000, 23:07:10.370
94, 18287.53, 14003.72, 16200.28, 9710.45, 71734.41, 45664.34, -187500.02, 51000.91, 0.000, 0.000, 0.000, 23:07:10.370
95, 18317.25, 13989.96, 16248.40, 9218.66, 71557.38, 45674.58, -187500.02, 51006.41, 0.000, 0.000, 0.000, 23:07:10.370
96, 18322.91, 14013.29, 16262.12, 8801.40, 71605.71, 45715.26, -187500.02, 51066.76, 0.000, 0.000, 0.000, 23:07:10.371
97, 18299.17, 14039.93, 16223.88, 9059.32, 71803.73, 45726.95, -187500.02, 51086.43, 0.274, 0.894, 0.288, 23:07:10.371
98, 18292.09, 14054.35, 16201.68, 9632.73, 71888.15, 45678.83, -187500.02, 51052.50, 0.000, 0.000, 0.000, 23:07:10.371
99, 18294.41, 14017.29, 16202.31, 9763.64, 71731.02, 45678.40, -187500.02, 51009.27, 0.000, 0.000, 0.000, 23:07:10.371
100, 18322.93, 14001.20, 16252.87, 9273.67, 71553.70, 45700.98, -187500.02, 51025.99, 0.000, 0.000, 0.000, 23:07:10.371
101, 18338.98, 14026.86, 16275.60, 8861.48, 71613.89, 45727.82, -187500.02, 51093.43, 0.000, 0.000, 0.000, 23:07:10.371
102, 18333.77, 14067.32, 16247.71, 9088.62, 71831.80, 45726.66, -187500.02, 51122.77, 0.000, 0.000, 0.000, 23:07:10.372
103, 18325.12, 14080.73, 16229.06, 9642.52, 71921.05, 45701.92, -187500.02, 51092.09, 0.000, 0.000, 0.000, 23:07:10.372
104, 18324.50, 14043.31, 16232.95, 9763.29, 71760.88, 45688.37, -187500.02, 51060.23, 0.000, 0.000, 0.000, 23:07:10.372
105, 18343.99, 14022.63, 16258.37, 9281.58, 71572.81, 45703.93, -187500.02, 51066.43, 0.000, 0.000, 0.000, 23:07:10.827
106, 18352.82, 14045.95, 16275.69, 8875.74, 71613.96, 45735.45, -187500.02, 51110.39, 0.000, 0.000, 0.000, 23:07:10.827
107, 18343.99, 14085.00, 16258.50, 9111.89, 71824.58, 45728.79, -187500.02, 51142.09, 0.274, 0.890, 0.290, 23:07:10.828
108, 18330.82, 14098.03, 16236.37, 9690.31, 71922.23, 45714.99, -187500.02, 51121.52, 0.000, 0.000, 0.000, 23:07:10.828
109, 18332.10, 14067.36, 16249.14, 9813.04, 71780.75, 45715.08, -187500.02, 51083.75, 0.000, 0.000, 0.000, 23:07:10.828
110, 18354.85, 14047.00, 16288.03, 9330.80, 71607.30, 45716.82, -187500.02, 51081.22, 0.000, 0.000, 0.000, 23:07:10.829
111, 18361.62, 14062.55, 16288.34, 8930.15, 71648.70, 45713.36, -187500.02, 51124.74, 0.000, 0.000, 0.000, 23:07:10.829
112, 18347.90, 14098.45, 16259.75, 9165.98, 71844.05, 45723.98, -187500.02, 51163.01, 0.000, 0.000, 0.000, 23:07:10.829
113, 18337.66, 14108.22, 16236.49, 9738.50, 71920.58, 45718.70, -187500.02, 51142.67, 0.000, 0.000, 0.000, 23:07:10.830
114, 18348.01, 14078.85, 16258.77, 9855.98, 71765.62, 45696.78, -187500.02, 51095.21, 0.000, 0.000, 0.000, 23:07:10.830
115, 18369.40, 14061.04, 16302.16, 9368.38, 71600.44, 45711.46, -187500.02, 51088.82, 0.000, 0.000, 0.000, 23:07:10.831
116, 18379.08, 14086.87, 16320.19, 8947.67, 71652.43, 45750.84, -187500.02, 51151.74, 0.000, 0.000, 0.000, 23:07:10.831
117, 18355.88, 14116.98, 16287.25, 9195.26, 71862.27, 45748.52, -187500.02, 51175.46, 0.000, 0.000, 0.000, 23:07:10.831
118, 18338.33, 14118.34, 16251.48, 9764.02, 71939.49, 45712.64, -187500.02, 51132.23, 0.272, 0.900, 0.288, 23:07:10.832
119, 18331.80, 14074.38, 16239.93, 9899.21, 71773.53, 45695.64, -187500.02, 51078.79, 0.000, 0.000, 0.000, 23:07:10.832
120, 18362.72, 14061.91, 16280.41, 9416.97, 71585.02, 45710.84, -187500.02, 51089.07, 0.000, 0.000, 0.000, 23:07:10.832
121, 18369.47, 14082.29, 16289.97, 9006.86, 71629.02, 45732.67, -187500.02, 51135.69, 0.000, 0.000, 0.000, 23:07:10.832
122, 18361.15, 14126.70, 16276.50, 9233.93, 71846.64, 45740.59, -187500.02, 51175.79, 0.000, 0.000, 0.000, 23:07:10.833
123, 18350.87, 14133.03, 16256.56, 9805.46, 71950.98, 45723.62, -187500.02, 51152.73, 0.000, 0.000, 0.000, 23:07:10.833
124, 18364.71, 14103.84, 16272.16, 9922.99, 71793.24, 45710.34, -187500.02, 51097.11, 0.000, 0.000, 0.000, 23:07:10.833
125, 18383.30, 14078.65, 16306.92, 9452.96, 71609.91, 45715.84, -187500.02, 51088.46, 0.000, 0.000, 0.000, 23:07:10.834
126, 18393.65, 14098.38, 16311.50, 9053.55, 71644.23, 45741.43, -187500.02, 51142.33, 0.000, 0.000, 0.000, 23:07:10.834
127, 18378.79, 14134.50, 16274.21, 9293.32, 71845.84, 45744.72, -187500.02, 51174.00, 0.000, 0.000, 0.000, 23:07:10.834
128, 18366.23, 14141.21, 16260.07, 9853.43, 71937.99, 45690.41, -187500.02, 51130.24, 0.278, 0.894, 0.282, 23:07:10.835
129, 18371.95, 14107.44, 16280.76, 9978.29, 71782.29, 45721.07, -187500.02, 51087.46, 0.000, 0.000, 0.000, 23:07:10.835
130, 18391.86, 14084.82, 16305.84, 9496.16, 71597.87, 45735.73, -187500.02, 51094.66, 0.000, 0.000, 0.000, 23:07:10.835
131, 18395.11, 14102.23, 16313.64, 9088.02, 71646.15, 45764.64, -187500.02, 51162.09, 0.000, 0.000, 0.000, 23:07:10.835
132, 18394.57, 14149.88, 16305.91, 9303.00, 71865.69, 45776.44, -187500.02, 51204.92, 0.000, 0.000, 0.000, 23:07:10.836
133, 18370.88, 14144.79, 16276.41, 9871.94, 71958.45, 45722.86, -187500.02, 51141.26, 0.000, 0.000, 0.000, 23:07:10.836
134, 18369.83, 14105.98, 16273.83, 9996.73, 71789.40, 45706.88, -187500.02, 51081.09, 0.000, 0.000, 0.000, 23:07:10.836
135, 18391.24, 14083.92, 16298.67, 9518.65, 71597.30, 45728.16, -187500.02, 51087.61, 0.000, 0.000, 0.000, 23:07:10.836
136, 18409.43, 14112.58, 16318.99, 9091.17, 71653.30, 45767.30, -187500.02, 51146.15, 0.000, 0.000, 0.000, 23:07:10.836
137, 18385.07, 14137.34, 16291.02, 9338.25, 71864.37, 45762.80, -187500.02, 51174.12, 0.000, 0.000, 0.000, 23:07:10.837
138, 18365.80, 14138.98, 16265.34, 9914.61, 71928.90, 45729.59, -187500.02, 51131.47, 0.282, 0.896, 0.286, 23:07:10.837
139, 18365.15, 14101.00, 16271.64, 10048.41, 71782.94, 45708.55, -187500.02, 51092.24, 0.000, 0.000, 0.000, 23:07:10.837
140, 18382.90, 14076.57, 16294.71, 9571.26, 71608.80, 45701.71, -187500.02, 51089.49, 0.000, 0.000, 0.000, 23:07:10.838
141, 18384.73, 14089.51, 16314.00, 9160.04, 71647.69, 45734.30, -187500.02, 51134.02, 0.000, 0.000, 0.000, 23:07:10.838
142, 18371.03, 14122.30, 16292.50, 9393.50, 71840.88, 45750.89, -187500.02, 51162.05, 0.000, 0.000, 0.000, 23:07:10.838
143, 18357.73, 14125.88, 16261.63, 9950.35, 71923.64, 45717.61, -187500.02, 51091.64, 0.000, 0.000, 0.000, 23:07:10.838
144, 18362.70, 14087.14, 16265.59, 10079.99, 71767.96, 45689.11, -187500.02, 51029.54, 0.000, 0.000, 0.000, 23:07:10.838
145, 18383.15, 14064.59, 16296.03, 9597.66, 71591.70, 45710.72, -187500.02, 51052.50, 0.000, 0.000, 0.000, 23:07:10.839
146, 18384.11, 14075.56, 16299.99, 9196.25, 71636.31, 45736.29, -187500.02, 51113.25, 0.000, 0.000, 0.000, 23:07:10.839
147, 18376.11, 14122.39, 16285.26, 9423.34, 71841.81, 45745.19, -187500.02, 51157.40, 0.000, 0.000, 0.000, 23:07:10.839
148, 18373.65, 14143.76, 16271.47, 9968.21, 71938.59, 45727.46, -187500.02, 51121.77, 0.282, 0.900, 0.288, 23:07:10.839
149, 18371.75, 14101.89, 16260.18, 10096.13, 71784.63, 45712.20, -187500.02, 51056.34, 0.000, 0.000, 0.000, 23:07:10.840
150, 18387.21, 14071.56, 16291.07, 9629.76, 71603.50, 45728.79, -187500.02, 51063.83, 0.000, 0.000, 0.000, 23:07:10.840
151, 18400.51, 14102.79, 16324.17, 9221.86, 71664.54, 45773.04, -187500.02, 51149.08, 0.000, 0.000, 0.000, 23:07:10.840
152, 18385.11, 14139.89, 16301.57, 9451.79, 71876.46, 45773.36, -187500.02, 51177.43, 0.000, 0.000, 0.000, 23:07:10.840
153, 18372.37, 14141.14, 16274.64, 10022.99, 71968.59, 45744.39, -187500.02, 51131.18, 0.000, 0.000, 0.000, 23:07:10.841
154, 18375.17, 14106.61, 16272.99, 10149.79, 71811.64, 45714.97, -187500.02, 51073.64, 0.000, 0.000, 0.000, 23:07:10.841
155, 18393.72, 14085.60, 16304.01, 9677.03, 71626.21, 45708.73, -187500.02, 51075.61, 0.000, 0.000, 0.000, 23:07:10.841
156, 18396.24, 14104.29, 16322.79, 9277.23, 71668.72, 45754.38, -187500.02, 51137.53, 0.000, 0.000, 0.000, 23:07:10.841
157, 18377.02, 14134.95, 16299.58, 9517.62, 71869.15, 45769.57, -187500.02, 51160.95, 0.000, 0.000, 0.000, 23:07:10.842
158, 18374.54, 14148.56, 16286.42, 10069.35, 71945.39, 45755.36, -187500.02, 51146.71, 0.278, 0.902, 0.286, 23:07:10.842
159, 18373.24, 14108.38, 16284.77, 10192.48, 71801.47, 45724.63, -187500.02, 51094.72, 0.000, 0.000, 0.000, 23:07:10.842
160, 18387.84, 14077.60, 16310.76, 9720.19, 71616.91, 45729.81, -187500.02, 51082.65, 0.000, 0.000, 0.000, 23:07:10.842
161, 18398.26, 14097.09, 16330.83, 9309.19, 71656.85, 45758.89, -187500.02, 51140.88, 0.000, 0.000, 0.000, 23:07:10.843
162, 18380.82, 14126.82, 16302.04, 9546.27, 71861.28, 45759.18, -187500.02, 51168.19, 0.000, 0.000, 0.000, 23:07:10.843
163, 18366.63, 14132.76, 16271.42, 10114.19, 71942.28, 45736.20, -187500.02, 51123.04, 0.000, 0.000, 0.000, 23:07:10.843
164, 18369.42, 14098.63, 16267.62, 10230.39, 71787.74, 45717.54, -187500.02, 51071.75, 0.000, 0.000, 0.000, 23:07:10.843
165, 18397.85, 14086.18, 16308.08, 9730.56, 71613.16, 45748.43, -187500.02, 51095.48, 0.000, 0.000, 0.000, 23:07:10.843
166, 18399.38, 14102.14, 16326.45, 9324.52, 71664.01, 45775.50, -187500.02, 51150.73, 0.000, 0.000, 0.000, 23:07:10.844
167, 18389.43, 14144.27, 16317.51, 9551.86, 71871.88, 45779.30, -187500.02, 51182.74, 0.000, 0.000, 0.000, 23:07:10.844
168, 18373.09, 14149.30, 16282.51, 10105.31, 71956.48, 45751.58, -187500.02, 51138.98, 0.278, 0.902, 0.288, 23:07:10.844
169, 18383.50, 14120.85, 16293.06, 10227.58, 71812.29, 45736.43, -187500.02, 51097.41, 0.000, 0.000, 0.000, 23:07:10.845
170, 18400.87, 14096.37, 16311.54, 9749.79, 71639.69, 45730.21, -187500.02, 51092.24, 0.000, 0.000, 0.000, 23:07:10.845
171, 18399.98, 14104.38, 16323.37, 9355.72, 71672.19, 45784.64, -187500.02, 51133.32, 0.000, 0.000, 0.000, 23:07:10.845
172, 18374.56, 14135.64, 16299.74, 9594.87, 71870.98, 45777.80, -187500.02, 51152.05, 0.000, 0.000, 0.000, 23:07:10.845
173, 18350.96, 14127.98, 16265.57, 10170.07, 71941.86, 45722.04, -187500.02, 51099.80, 0.000, 0.000, 0.000, 23:07:10.845
174, 18364.01, 14103.21, 16281.12, 10283.43, 71773.84, 45704.04, -187500.02, 51070.45, 0.000, 0.000, 0.000, 23:07:10.846
175, 18393.05, 14090.54, 16326.29, 9797.95, 71611.14, 45754.78, -187500.02, 51096.87, 0.000, 0.000, 0.000, 23:07:10.846
176, 18395.62, 14101.69, 16327.57, 9402.78, 71669.50, 45764.77, -187500.02, 51133.04, 0.000, 0.000, 0.000, 23:07:10.846
177, 18388.13, 14140.74, 16310.51, 9635.86, 71870.22, 45759.96, -187500.02, 51169.60, 0.000, 0.000, 0.000, 23:07:10.846
178, 18379.79, 14151.34, 16289.19, 10187.50, 71962.89, 45760.46, -187500.02, 51158.20, 0.000, 0.000, 0.000, 23:07:10.847
179, 18373.58, 14109.34, 16277.30, 10321.10, 71804.22, 45726.50, -187500.02, 51086.16, 0.274, 0.906, 0.286, 23:07:10.847
180, 18389.09, 14084.48, 16307.23, 9858.21, 71627.23, 45730.73, -187500.02, 51079.99, 0.000, 0.000, 0.000, 23:07:10.847
181, 18406.68, 14113.25, 16336.24, 9442.47, 71675.13, 45769.38, -187500.02, 51150.98, 0.000, 0.000, 0.000, 23:07:10.848
182, 18393.00, 14146.71, 16315.19, 9673.97, 71883.23, 45772.37, -187500.02, 51184.89, 0.000, 0.000, 0.000, 23:07:10.848
183, 18376.78, 14147.33, 16287.45, 10233.50, 71955.16, 45731.87, -187500.02, 51134.26, 0.000, 0.000, 0.000, 23:07:10.848
184, 18378.19, 14106.86, 16285.30, 10345.55, 71794.29, 45705.94, -187500.02, 51069.55, 0.000, 0.000, 0.000, 23:07:10.848
185, 18401.14, 14082.38, 16313.55, 9870.60, 71619.28, 45711.91, -187500.02, 51063.96, 0.000, 0.000, 0.000, 23:07:10.848
186, 18410.64, 14100.51, 16335.88, 9462.01, 71662.62, 45777.45, -187500.02, 51132.50, 0.000, 0.000, 0.000, 23:07:10.849
187, 18395.20, 14136.79, 16320.71, 9699.16, 71875.09, 45789.58, -187500.02, 51184.84, 0.000, 0.000, 0.000, 23:07:10.849
188, 18374.72, 14139.38, 16281.84, 10259.94, 71955.83, 45747.80, -187500.02, 51129.79, 0.000, 0.000, 0.000, 23:07:10.849
189, 18385.11, 14110.52, 16277.08, 10379.03, 71796.41, 45706.14, -187500.02, 51056.14, 0.272, 0.910, 0.286, 23:07:10.849
190, 18409.10, 14089.49, 16309.91, 9910.03, 71613.06, 45716.36, -187500.02, 51055.20, 0.000, 0.000, 0.000, 23:07:10.849
191, 18405.52, 14098.97, 16336.51, 9498.87, 71662.22, 45785.67, -187500.02, 51125.23, 0.000, 0.000, 0.000, 23:07:10.850
192, 18371.43, 14120.69, 16309.31, 9738.30, 71873.02, 45786.79, -187500.02, 51165.29, 0.000, 0.000, 0.000, 23:07:10.850
193, 18363.21, 14134.48, 16285.86, 10288.91, 71951.58, 45749.82, -187500.02, 51136.54, 0.000, 0.000, 0.000, 23:07:10.850
194, 18359.86, 14092.55, 16282.13, 10400.89, 71786.63, 45730.28, -187500.02, 51079.72, 0.000, 0.000, 0.000, 23:07:10.850
195, 18376.69, 14065.73, 16324.01, 9923.44, 71603.86, 45748.30, -187500.02, 51088.09, 0.000, 0.000, 0.000, 23:07:10.850
196, 18377.11, 14081.22, 16349.92, 9516.28, 71666.48, 45783.93, -187500.02, 51156.68, 0.000, 0.000, 0.000, 23:07:10.851
197, 18351.54, 14105.36, 16313.02, 9744.71, 71875.67, 45785.96, -187500.02, 51189.92, 0.000, 0.000, 0.000, 23:07:10.851
198, 18337.91, 14111.75, 16280.65, 10286.50, 71951.23, 45755.45, -187500.02, 51150.09, 0.000, 0.000, 0.000, 23:07:10.851
199, 18331.04, 14068.43, 16284.63, 10410.15, 71806.25, 45738.73, -187500.02, 51094.68, 0.270, 0.908, 0.290, 23:07:10.851
200, 18349.42, 14044.99, 16317.22, 9942.93, 71623.01, 45751.43, -187500.02, 51089.07, 0.000, 0.000, 0.000, 23:07:10.851
201, 18345.57, 14052.45, 16321.53, 9548.98, 71663.11, 45765.11, -187500.02, 51127.96, 0.000, 0.000, 0.000, 23:07:10.852
202, 18336.23, 14098.14, 16303.27, 9772.07, 71861.46, 45751.76, -187500.02, 51160.77, 0.000, 0.000, 0.000, 23:07:10.852
203, 18318.88, 14102.07, 16269.10, 10322.53, 71947.76, 45751.20, -187500.02, 51131.43, 0.000, 0.000, 0.000, 23:07:10.852
204, 18335.34, 14081.42, 16286.04, 10423.65, 71790.18, 45754.69, -187500.02, 51093.61, 0.000, 0.000, 0.000, 23:07:10.852
205, 18349.17, 14055.58, 16316.13, 9963.69, 71632.94, 45760.79, -187500.02, 51090.92, 0.000, 0.000, 0.000, 23:07:10.852
206, 18359.19, 14075.23, 16332.17, 9574.32, 71678.31, 45800.04, -187500.02, 51146.67, 0.000, 0.000, 0.000, 23:07:10.853
207, 18353.51, 14115.71, 16312.48, 9787.74, 71877.58, 45806.86, -187500.02, 51173.56, 0.000, 0.000, 0.000, 23:07:10.853
208, 18337.66, 14119.37, 16279.02, 10336.81, 71955.07, 45765.39, -187500.02, 51123.09, 0.000, 0.000, 0.000, 23:07:10.853
209, 18337.73, 14082.36, 16276.96, 10458.34, 71794.80, 45751.94, -187500.02, 51066.67, 0.270, 0.910, 0.292, 23:07:10.853
210, 18358.87, 14059.18, 16309.82, 9999.63, 71617.40, 45763.50, -187500.02, 51072.53, 0.000, 0.000, 0.000, 23:07:10.853
211, 18375.57, 14085.20, 16335.35, 9584.29, 71663.73, 45789.58, -187500.02, 51141.95, 0.000, 0.000, 0.000, 23:07:10.853
212, 18352.28, 14107.55, 16305.35, 9809.60, 71860.09, 45787.50, -187500.02, 51165.42, 0.000, 0.000, 0.000, 23:07:10.854
213, 18332.70, 14111.44, 16277.37, 10356.14, 71939.71, 45763.54, -187500.02, 51118.80, 0.000, 0.000, 0.000, 23:07:10.854
214, 18324.05, 14072.10, 16264.89, 10487.04, 71784.88, 45736.00, -187500.02, 51061.73, 0.000, 0.000, 0.000, 23:07:10.854
215, 18348.57, 14053.39, 16300.52, 10016.33, 71604.80, 45749.84, -187500.02, 51063.56, 0.000, 0.000, 0.000, 23:07:10.854
216, 18362.49, 14075.50, 16326.54, 9612.17, 71654.52, 45781.71, -187500.02, 51122.84, 0.000, 0.000, 0.000, 23:07:10.854
217, 18352.50, 14113.47, 16307.79, 9823.77, 71858.38, 45776.48, -187500.02, 51159.27, 0.000, 0.000, 0.000, 23:07:10.855
218, 18333.75, 14116.15, 16287.69, 10363.07, 71950.33, 45763.68, -187500.02, 51129.48, 0.000, 0.000, 0.000, 23:07:10.855
219, 18326.78, 14073.95, 16281.23, 10484.33, 71791.66, 45737.28, -187500.02, 51059.63, 0.274, 0.910, 0.288, 23:07:10.855
220, 18346.40, 14048.32, 16310.72, 10027.42, 71610.23, 45757.84, -187500.02, 51053.04, 0.000, 0.000, 0.000, 23:07:10.855
221, 18360.62, 14069.71, 16323.97, 9622.54, 71651.27, 45789.13, -187500.02, 51121.99, 0.000, 0.000, 0.000, 23:07:10.855
222, 18353.69, 14109.78, 16304.28, 9831.91, 71856.07, 45794.32, -187500.02, 51156.64, 0.000, 0.000, 0.000, 23:07:10.856
223, 18324.92, 14103.75, 16273.37, 10388.96, 71937.59, 45758.13, -187500.02, 51105.34, 0.000, 0.000, 0.000, 23:07:10.856
224, 18322.02, 14065.75, 16267.84, 10510.97, 71782.65, 45727.51, -187500.02, 51051.11, 0.000, 0.000, 0.000, 23:07:10.856
225, 18353.98, 14055.74, 16305.33, 10036.92, 71616.24, 45751.92, -187500.02, 51055.96, 0.000, 0.000, 0.000, 23:07:11.306
226, 18372.51, 14082.27, 16337.00, 9632.01, 71679.09, 45790.70, -187500.02, 51123.22, 0.000, 0.000, 0.000, 23:07:11.307
227, 18351.65, 14109.74, 16305.37, 9862.26, 71877.28, 45780.30, -187500.02, 51148.39, 0.000, 0.000, 0.000, 23:07:11.307
228, 18344.41, 14120.94, 16276.92, 10391.91, 71953.15, 45750.46, -187500.02, 51102.46, 0.000, 0.000, 0.000, 23:07:11.307
229, 18337.55, 14077.40, 16270.82, 10506.71, 71795.79, 45738.51, -187500.02, 51048.07, 0.268, 0.906, 0.288, 23:07:11.308
230, 18357.71, 14060.81, 16308.75, 10041.90, 71622.77, 45757.35, -187500.02, 51046.15, 0.000, 0.000, 0.000, 23:07:11.308
231, 18352.95, 14070.00, 16310.22, 9658.30, 71681.93, 45784.15, -187500.02, 51105.77, 0.000, 0.000, 0.000, 23:07:11.308
232, 18335.36, 14099.21, 16292.19, 9891.41, 71875.90, 45776.37, -187500.02, 51148.66, 0.000, 0.000, 0.000, 23:07:11.308
233, 18325.59, 14108.38, 16269.99, 10423.69, 71956.37, 45743.34, -187500.02, 51109.74, 0.000, 0.000, 0.000, 23:07:11.309
234, 18326.17, 14073.75, 16266.10, 10534.80, 71795.66, 45751.98, -187500.02, 51053.17, 0.000, 0.000, 0.000, 23:07:11.309
235, 18344.66, 14051.60, 16295.23, 10070.24, 71614.85, 45759.25, -187500.02, 51048.84, 0.000, 0.000, 0.000, 23:07:11.310
236, 18357.11, 14074.54, 16315.07, 9669.30, 71664.30, 45782.72, -187500.02, 51105.65, 0.000, 0.000, 0.000, 23:07:11.310
237, 18350.63, 14112.65, 16294.94, 9883.11, 71863.49, 45788.04, -187500.02, 51140.66, 0.000, 0.000, 0.000, 23:07:11.311
238, 18331.63, 14111.13, 16262.08, 10425.84, 71946.42, 45759.14, -187500.02, 51100.85, 0.000, 0.000, 0.000, 23:07:11.311
239, 18341.42, 14084.33, 16273.83, 10537.64, 71793.87, 45736.68, -187500.02, 51049.57, 0.268, 0.904, 0.284, 23:07:11.311
240, 18357.11, 14062.24, 16299.83, 10071.00, 71614.07, 45761.60, -187500.02, 51044.16, 0.000, 0.000, 0.000, 23:07:11.312
241, 18370.65, 14084.30, 16325.40, 9669.79, 71673.95, 45796.00, -187500.02, 51109.90, 0.000, 0.000, 0.000, 23:07:11.312
242, 18354.09, 14112.04, 16288.39, 9906.49, 71875.14, 45767.96, -187500.02, 51131.51, 0.000, 0.000, 0.000, 23:07:11.312
243, 18343.70, 14118.17, 16275.06, 10450.18, 71955.02, 45749.21, -187500.02, 51096.04, 0.000, 0.000, 0.000, 23:07:11.312
244, 18341.28, 14084.64, 16273.21, 10578.97, 71797.98, 45737.68, -187500.02, 51049.93, 0.000, 0.000, 0.000, 23:07:11.313
245, 18366.09, 14068.48, 16302.54, 10129.18, 71626.77, 45754.11, -187500.02, 51051.25, 0.000, 0.000, 0.000, 23:07:11.313
246, 18370.50, 14082.29, 16314.36, 9736.96, 71663.69, 45776.89, -187500.02, 51093.92, 0.000, 0.000, 0.000, 23:07:11.313
247, 18358.11, 14119.33, 16293.04, 9954.19, 71859.98, 45772.37, -187500.02, 51114.14, 0.000, 0.000, 0.000, 23:07:11.313
248, 18353.13, 14137.61, 16272.54, 10480.58, 71949.46, 45749.26, -187500.02, 51090.03, 0.000, 0.000, 0.000, 23:07:11.313
249, 18351.29, 14100.73, 16272.05, 10603.09, 71799.14, 45713.85, -187500.02, 51031.80, 0.000, 0.000, 0.000, 23:07:11.313
250, 18370.65, 14075.90, 16298.91, 10148.85, 71623.08, 45755.00, -187500.02, 51026.26, 0.268, 0.896, 0.290, 23:07:11.314
251, 18387.86, 14102.50, 16324.10, 9744.71, 71676.41, 45794.23, -187500.02, 51103.11, 0.000, 0.000, 0.000, 23:07:11.314
252, 18371.21, 14133.66, 16305.93, 9958.62, 71882.31, 45787.95, -187500.02, 51149.13, 0.000, 0.000, 0.000, 23:07:11.314
253, 18354.16, 14134.17, 16282.55, 10497.41, 71969.33, 45754.33, -187500.02, 51114.50, 0.000, 0.000, 0.000, 23:07:11.314
254, 18356.77, 14103.46, 16276.92, 10618.15, 71811.52, 45734.59, -187500.02, 51046.31, 0.000, 0.000, 0.000, 23:07:11.314
255, 18371.50, 14080.44, 16299.36, 10176.15, 71630.27, 45751.72, -187500.02, 51033.97, 0.000, 0.000, 0.000, 23:07:11.314
0, 18381.00, 14099.28, 16318.16, 9793.37, 71669.32, 45775.28, -187500.02, 51086.52, 0.000, 0.000, 0.000, 23:07:11.315
1, 18372.82, 14135.78, 16308.19, 10012.24, 71869.66, 45775.77, -187500.02, 51111.29, 0.000, 0.000, 0.000, 23:07:11.315
2, 18344.81, 14133.57, 16270.84, 10560.17, 71952.16, 45759.05, -187500.02, 51071.39, 0.000, 0.000, 0.000, 23:07:11.315
3, 18346.04, 14094.67, 16274.95, 10688.58, 71797.96, 45716.60, -187500.02, 51029.05, 0.000, 0.000, 0.000, 23:07:11.315
4, 18367.37, 14071.76, 16305.53, 10232.92, 71614.56, 45715.15, -187500.02, 51020.05, 0.266, 0.896, 0.292, 23:07:11.315
5, 18386.95, 14096.86, 16323.21, 9830.77, 71669.34, 45778.61, -187500.02, 51096.82, 0.000, 0.000, 0.000, 23:07:11.315
6, 18366.34, 14123.04, 16306.96, 10060.92, 71878.80, 45779.19, -187500.02, 51128.34, 0.000, 0.000, 0.000, 23:07:11.315
7, 18355.45, 14134.75, 16285.28, 10590.88, 71948.05, 45728.63, -187500.02, 51082.00, 0.000, 0.000, 0.000, 23:07:11.316
8, 18357.46, 14105.20, 16281.08, 10693.81, 71805.78, 45718.66, -187500.02, 51030.68, 0.000, 0.000, 0.000, 23:07:11.316
9, 18380.26, 14086.02, 16313.40, 10228.52, 71631.13, 45762.22, -187500.02, 51037.93, 0.000, 0.000, 0.000, 23:07:11.316
10, 18386.61, 14098.32, 16315.45, 9835.04, 71675.34, 45777.22, -187500.02, 51087.48, 0.000, 0.000, 0.000, 23:07:11.316
11, 18378.21, 14137.05, 16296.57, 10054.35, 71864.92, 45771.45, -187500.02, 51108.25, 0.000, 0.000, 0.000, 23:07:11.316
12, 18366.18, 14145.50, 16267.11, 10576.08, 71944.97, 45744.27, -187500.02, 51078.41, 0.000, 0.000, 0.000, 23:07:11.316
13, 18354.58, 14096.24, 16263.51, 10690.91, 71800.41, 45722.37, -187500.02, 51021.97, 0.000, 0.000, 0.000, 23:07:11.316
14, 18367.01, 14069.22, 16306.33, 10239.22, 71636.58, 45733.32, -187500.02, 51020.96, 0.270, 0.906, 0.280, 23:07:11.317
15, 18379.66, 14088.28, 16330.92, 9857.92, 71676.16, 45762.31, -187500.02, 51074.61, 0.000, 0.000, 0.000, 23:07:11.317
16, 18372.53, 14121.65, 16310.34, 10078.42, 71868.10, 45763.47, -187500.02, 51112.54, 0.000, 0.000, 0.000, 23:07:11.317
17, 18366.21, 14129.90, 16281.86, 10598.77, 71939.67, 45721.14, -187500.02, 51057.15, 0.000, 0.000, 0.000, 23:07:11.317
18, 18374.38, 14100.69, 16289.37, 10692.54, 71797.69, 45724.43, -187500.02, 51001.56, 0.000, 0.000, 0.000, 23:07:11.317
19, 18382.57, 14069.04, 16314.00, 10243.11, 71650.70, 45716.00, -187500.02, 51021.63, 0.000, 0.000, 0.000, 23:07:11.317
20, 18376.66, 14070.40, 16312.12, 9883.47, 71687.02, 45738.64, -187500.02, 51078.07, 0.000, 0.000, 0.000, 23:07:11.318
21, 18379.17, 14116.60, 16297.53, 10090.83, 71869.44, 45759.09, -187500.02, 51109.30, 0.000, 0.000, 0.000, 23:07:11.318
22, 18361.69, 14118.55, 16255.19, 10604.85, 71938.51, 45731.29, -187500.02, 51058.56, 0.000, 0.000, 0.000, 23:07:11.318
23, 18357.98, 14081.84, 16261.56, 10727.05, 71800.39, 45708.06, -187500.02, 51020.11, 0.000, 0.000, 0.000, 23:07:11.318
24, 18374.38, 14059.85, 16295.36, 10291.44, 71626.23, 45706.34, -187500.02, 51028.23, 0.272, 0.910, 0.284, 23:07:11.318
25, 18382.61, 14081.33, 16319.83, 9911.68, 71664.02, 45736.96, -187500.02, 51083.77, 0.000, 0.000, 0.000, 23:07:11.318
26, 18368.84, 14114.30, 16303.94, 10129.52, 71867.07, 45760.93, -187500.02, 51110.12, 0.000, 0.000, 0.000, 23:07:11.318
27, 18350.18, 14109.69, 16263.44, 10660.98, 71935.47, 45718.86, -187500.02, 51054.49, 0.000, 0.000, 0.000, 23:07:11.319
28, 18351.43, 14074.47, 16265.74, 10764.17, 71783.85, 45694.81, -187500.02, 51003.53, 0.000, 0.000, 0.000, 23:07:11.319
29, 18368.08, 14050.10, 16300.08, 10333.05, 71627.46, 45702.92, -187500.02, 50998.92, 0.000, 0.000, 0.000, 23:07:11.319
30, 18374.88, 14070.45, 16304.66, 9966.06, 71672.27, 45723.20, -187500.02, 51056.70, 0.000, 0.000, 0.000, 23:07:11.319
31, 18375.19, 14113.32, 16295.87, 10174.33, 71860.95, 45729.16, -187500.02, 51102.93, 0.000, 0.000, 0.000, 23:07:11.319
32, 18362.05, 14118.99, 16265.21, 10701.21, 71928.27, 45713.77, -187500.02, 51061.69, 0.000, 0.000, 0.000, 23:07:11.319
33, 18369.36, 14090.38, 16267.08, 10805.41, 71777.53, 45701.07, -187500.02, 51020.09, 0.000, 0.000, 0.000, 23:07:11.320
34, 18395.80, 14079.45, 16301.55, 10343.76, 71617.83, 45720.89, -187500.02, 51034.04, 0.274, 0.906, 0.290, 23:07:11.320
35, 18400.40, 14096.48, 16316.13, 9966.91, 71676.97, 45751.36, -187500.02, 51094.97, 0.000, 0.000, 0.000, 23:07:11.320
36, 18394.66, 14137.81, 16301.82, 10176.59, 71876.39, 45765.02, -187500.02, 51131.89, 0.000, 0.000, 0.000, 23:07:11.320
37, 18379.68, 14142.78, 16263.67, 10695.67, 71944.92, 45737.61, -187500.02, 51096.06, 0.000, 0.000, 0.000, 23:07:11.320
38, 18382.14, 14111.24, 16255.33, 10796.65, 71782.67, 45703.39, -187500.02, 51041.01, 0.000, 0.000, 0.000, 23:07:11.320
39, 18406.91, 14096.37, 16311.48, 10348.66, 71617.45, 45706.21, -187500.02, 51046.71, 0.000, 0.000, 0.000, 23:07:11.321
40, 18413.95, 14115.93, 16325.36, 9984.23, 71674.76, 45725.32, -187500.02, 51101.47, 0.000, 0.000, 0.000, 23:07:11.321
41, 18388.87, 14137.46, 16292.99, 10231.67, 71861.70, 45749.39, -187500.02, 51126.46, 0.000, 0.000, 0.000, 23:07:11.321
42, 18384.85, 14151.63, 16288.81, 10748.95, 71923.58, 45721.74, -187500.02, 51089.34, 0.000, 0.000, 0.000, 23:07:11.321
43, 18396.00, 14129.90, 16303.29, 10840.01, 71786.52, 45700.29, -187500.02, 51049.80, 0.000, 0.000, 0.000, 23:07:11.321
44, 18419.92, 14116.76, 16342.30, 10386.81, 71625.18, 45716.76, -187500.02, 51056.21, 0.272, 0.906, 0.288, 23:07:11.321
45, 18416.79, 14125.12, 16345.18, 10012.35, 71665.68, 45741.21, -187500.02, 51099.50, 0.000, 0.000, 0.000, 23:07:11.322
46, 18406.17, 14158.22, 16325.58, 10228.20, 71855.07, 45747.89, -187500.02, 51126.66, 0.000, 0.000, 0.000, 23:07:11.322
47, 18388.87, 14159.14, 16302.78, 10735.63, 71930.68, 45727.22, -187500.02, 51097.20, 0.000, 0.000, 0.000, 23:07:11.322
48, 18386.16, 14119.28, 16301.46, 10839.32, 71786.42, 45703.93, -187500.02, 51055.38, 0.000, 0.000, 0.000, 23:07:11.322
49, 18399.13, 14093.40, 16322.72, 10389.34, 71626.14, 45713.81, -187500.02, 51058.73, 0.000, 0.000, 0.000, 23:07:11.322
50, 18398.73, 14104.49, 16324.17, 10025.50, 71666.91, 45733.43, -187500.02, 51120.83, 0.000, 0.000, 0.000, 23:07:11.323
51, 18377.38, 14128.05, 16298.31, 10261.89, 71838.52, 45751.32, -187500.02, 51158.25, 0.000, 0.000, 0.000, 23:07:11.323
52, 18370.81, 14141.12, 16285.68, 10770.28, 71904.71, 45729.54, -187500.02, 51127.29, 0.000, 0.000, 0.000, 23:07:11.323
53, 18377.85, 14114.08, 16282.42, 10853.47, 71770.91, 45709.83, -187500.02, 51089.71, 0.000, 0.000, 0.000, 23:07:11.324
54, 18400.71, 14098.90, 16329.20, 10393.67, 71638.50, 45736.68, -187500.02, 51115.38, 0.000, 0.000, 0.000, 23:07:11.324
55, 18384.24, 14093.58, 16320.82, 10066.73, 71679.63, 45754.91, -187500.02, 51169.60, 0.266, 0.900, 0.290, 23:07:11.324
56, 18384.51, 14138.13, 16318.99, 10293.56, 71852.09, 45753.62, -187500.02, 51202.68, 0.000, 0.000, 0.000, 23:07:11.325
57, 18379.79, 14151.96, 16306.36, 10787.58, 71937.70, 45726.44, -187500.02, 51162.38, 0.000, 0.000, 0.000, 23:07:11.325
58, 18375.53, 14113.32, 16292.48, 10880.52, 71794.20, 45728.89, -187500.02, 51106.34, 0.000, 0.000, 0.000, 23:07:11.325
59, 18395.89, 14089.73, 16316.91, 10439.25, 71626.41, 45736.29, -187500.02, 51100.42, 0.000, 0.000, 0.000, 23:07:11.326
60, 18407.11, 14107.88, 16339.79, 10080.90, 71675.88, 45763.38, -187500.02, 51157.64, 0.000, 0.000, 0.000, 23:07:11.326
61, 18397.79, 14148.16, 16329.31, 10301.43, 71868.27, 45782.36, -187500.02, 51188.40, 0.000, 0.000, 0.000, 23:07:11.326
62, 18370.99, 14143.98, 16294.49, 10822.40, 71930.23, 45745.53, -187500.02, 51135.00, 0.000, 0.000, 0.000, 23:07:11.327
63, 18382.10, 14121.94, 16306.11, 10902.62, 71781.38, 45728.72, -187500.02, 51098.32, 0.000, 0.000, 0.000, 23:07:11.327
64, 18396.42, 14096.78, 16326.79, 10456.91, 71632.17, 45737.79, -187500.02, 51103.11, 0.000, 0.000, 0.000, 23:07:11.327
65, 18399.42, 14110.83, 16338.79, 10100.60, 71678.80, 45769.31, -187500.02, 51152.79, 0.276, 0.898, 0.292, 23:07:11.328
66, 18385.31, 14139.06, 16319.41, 10339.13, 71863.31, 45771.70, -187500.02, 51175.12, 0.000, 0.000, 0.000, 23:07:11.328
67, 18381.45, 14147.85, 16295.49, 10842.63, 71927.71, 45736.20, -187500.02, 51134.00, 0.000, 0.000, 0.000, 23:07:11.328
68, 18377.04, 14110.03, 16289.57, 10937.29, 71776.81, 45709.20, -187500.02, 51082.74, 0.000, 0.000, 0.000, 23:07:11.328
69, 18394.10, 14085.76, 16321.49, 10501.99, 71609.24, 45719.33, -187500.02, 51078.03, 0.000, 0.000, 0.000, 23:07:11.329
70, 18409.97, 14108.24, 16344.69, 10130.86, 71657.25, 45757.26, -187500.02, 51140.54, 0.000, 0.000, 0.000, 23:07:11.329
71, 18388.06, 14131.06, 16310.94, 10362.27, 71850.48, 45754.04, -187500.02, 51157.69, 0.000, 0.000, 0.000, 23:07:11.329
72, 18379.55, 14138.46, 16297.57, 10861.34, 71921.77, 45699.35, -187500.02, 51100.07, 0.000, 0.000, 0.000, 23:07:11.329
73, 18373.00, 14098.36, 16281.86, 10957.67, 71776.45, 45684.33, -187500.02, 51031.22, 0.000, 0.000, 0.000, 23:07:11.330
74, 18385.72, 14071.41, 16301.86, 10527.49, 71602.02, 45725.05, -187500.02, 51062.20, 0.000, 0.000, 0.000, 23:07:11.330
75, 18401.56, 14096.64, 16335.46, 10168.21, 71648.83, 45756.03, -187500.02, 51152.61, 0.276, 0.906, 0.290, 23:07:11.330
76, 18383.15, 14124.69, 16316.46, 10406.77, 71834.23, 45748.41, -187500.02, 51167.46, 0.000, 0.000, 0.000, 23:07:11.331
77, 18382.07, 14142.48, 16299.63, 10905.17, 71905.58, 45731.69, -187500.02, 51129.28, 0.000, 0.000, 0.000, 23:07:11.331
78, 18386.70, 14109.87, 16287.87, 11008.48, 71767.05, 45706.45, -187500.02, 51079.52, 0.000, 0.000, 0.000, 23:07:11.331
79, 18405.79, 14090.25, 16307.21, 10581.05, 71604.13, 45712.38, -187500.02, 51070.56, 0.000, 0.000, 0.000, 23:07:11.331
80, 18420.25, 14116.71, 16340.33, 10212.82, 71654.51, 45755.88, -187500.02, 51122.62, 0.000, 0.000, 0.000, 23:07:11.332
81, 18403.00, 14148.01, 16319.86, 10435.65, 71850.33, 45766.18, -187500.02, 51158.78, 0.000, 0.000, 0.000, 23:07:11.332
82, 18397.63, 14159.65, 16295.63, 10930.87, 71924.49, 45749.01, -187500.02, 51121.54, 0.000, 0.000, 0.000, 23:07:11.332
83, 18411.94, 14137.12, 16314.22, 11002.00, 71793.48, 45738.39, -187500.02, 51093.25, 0.000, 0.000, 0.000, 23:07:11.332
84, 18431.74, 14118.68, 16357.30, 10553.11, 71641.74, 45754.06, -187500.02, 51115.93, 0.000, 0.000, 0.000, 23:07:11.332
85, 18430.20, 14127.33, 16372.56, 10206.52, 71698.76, 45771.32, -187500.02, 51166.02, 0.268, 0.906, 0.290, 23:07:11.333
86, 18403.26, 14146.60, 16336.71, 10446.27, 71869.26, 45784.11, -187500.02, 51186.12, 0.000, 0.000, 0.000, 23:07:11.333
87, 18394.43, 14158.98, 16312.91, 10942.56, 71928.90, 45740.74, -187500.02, 51149.62, 0.000, 0.000, 0.000, 23:07:11.333
88, 18400.83, 14133.66, 16320.82, 11022.07, 71800.66, 45724.94, -187500.02, 51100.96, 0.000, 0.000, 0.000, 23:07:11.333
89, 18413.10, 14106.61, 16337.69, 10584.69, 71637.41, 45753.08, -187500.02, 51100.55, 0.000, 0.000, 0.000, 23:07:11.333
90, 18411.87, 14112.20, 16344.56, 10248.18, 71667.65, 45764.61, -187500.02, 51141.95, 0.000, 0.000, 0.000, 23:07:11.788
91, 18403.64, 14146.11, 16337.72, 10475.61, 71846.75, 45771.05, -187500.02, 51163.52, 0.000, 0.000, 0.000, 23:07:11.789
92, 18397.59, 14160.59, 16319.28, 10967.26, 71912.51, 45740.54, -187500.02, 51126.91, 0.000, 0.000, 0.000, 23:07:11.789
93, 18407.15, 14133.19, 16318.70, 11035.64, 71772.37, 45734.93, -187500.02, 51084.98, 0.000, 0.000, 0.000, 23:07:11.790
94, 18420.09, 14105.09, 16342.23, 10594.70, 71627.19, 45745.50, -187500.02, 51085.54, 0.000, 0.000, 0.000, 23:07:11.790
95, 18415.13, 14109.85, 16339.01, 10246.73, 71672.90, 45758.91, -187500.02, 51133.30, 0.274, 0.908, 0.288, 23:07:11.790
96, 18400.42, 14137.14, 16319.59, 10471.57, 71838.39, 45756.43, -187500.02, 51161.11, 0.000, 0.000, 0.000, 23:07:11.791
97, 18384.26, 14136.94, 16287.27, 10971.00, 71904.42, 45737.46, -187500.02, 51126.21, 0.000, 0.000, 0.000, 23:07:11.791
98, 18390.30, 14110.63, 16285.84, 11064.94, 71758.28, 45724.14, -187500.02, 51083.95, 0.000, 0.000, 0.000, 23:07:11.792
99, 18411.78, 14095.84, 16335.79, 10624.48, 71612.28, 45726.50, -187500.02, 51088.96, 0.000, 0.000, 0.000, 23:07:11.792
100, 18417.70, 14110.75, 16349.25, 10281.82, 71667.54, 45764.91, -187500.02, 51144.05, 0.000, 0.000, 0.000, 23:07:11.793
101, 18409.59, 14145.26, 16335.91, 10506.62, 71851.47, 45766.83, -187500.02, 51172.13, 0.000, 0.000, 0.000, 23:07:11.793
102, 18401.61, 14157.62, 16317.62, 10988.25, 71934.44, 45743.49, -187500.02, 51133.75, 0.000, 0.000, 0.000, 23:07:11.793
103, 18391.10, 14116.62, 16305.33, 11083.98, 71785.38, 45706.77, -187500.02, 51077.87, 0.000, 0.000, 0.000, 23:07:11.794
104, 18408.02, 14095.10, 16330.36, 10655.37, 71609.51, 45714.23, -187500.02, 51075.97, 0.000, 0.000, 0.000, 23:07:11.794
105, 18421.75, 14118.97, 16349.81, 10299.93, 71659.06, 45760.90, -187500.02, 51141.88, 0.276, 0.904, 0.290, 23:07:11.795
106, 18411.15, 14150.91, 16324.33, 10517.86, 71852.81, 45759.32, -187500.02, 51170.11, 0.000, 0.000, 0.000, 23:07:11.796
107, 18400.94, 14162.78, 16307.50, 11005.35, 71926.93, 45736.43, -187500.02, 51141.91, 0.000, 0.000, 0.000, 23:07:11.796
108, 18398.26, 14130.68, 16307.27, 11097.86, 71786.00, 45713.63, -187500.02, 51086.45, 0.000, 0.000, 0.000, 23:07:11.796
109, 18406.93, 14099.12, 16312.88, 10678.86, 71628.38, 45716.34, -187500.02, 51074.96, 0.000, 0.000, 0.000, 23:07:11.796
110, 18413.79, 14111.26, 16326.34, 10343.38, 71666.95, 45740.96, -187500.02, 51127.45, 0.000, 0.000, 0.000, 23:07:11.797
111, 18405.10, 14146.80, 16316.57, 10567.90, 71849.10, 45762.82, -187500.02, 51154.89, 0.000, 0.000, 0.000, 23:07:11.797
112, 18385.79, 14149.35, 16288.03, 11070.06, 71916.13, 45726.55, -187500.02, 51107.39, 0.000, 0.000, 0.000, 23:07:11.798
113, 18403.24, 14130.75, 16315.41, 11142.84, 71768.90, 45709.34, -187500.02, 51083.97, 0.000, 0.000, 0.000, 23:07:11.798
114, 18426.13, 14116.94, 16353.00, 10688.47, 71632.29, 45739.69, -187500.02, 51102.03, 0.000, 0.000, 0.000, 23:07:11.798
115, 18429.66, 14129.01, 16358.08, 10346.58, 71682.58, 45757.39, -187500.02, 51145.98, 0.278, 0.902, 0.288, 23:07:11.798
116, 18416.36, 14158.22, 16330.99, 10569.67, 71863.60, 45762.04, -187500.02, 51169.13, 0.000, 0.000, 0.000, 23:07:11.799
117, 18398.53, 14158.51, 16300.77, 11060.60, 71915.02, 45733.03, -187500.02, 51129.97, 0.000, 0.000, 0.000, 23:07:11.799
118, 18407.40, 14132.63, 16302.54, 11134.16, 71767.83, 45686.70, -187500.02, 51078.29, 0.000, 0.000, 0.000, 23:07:11.799
119, 18415.80, 14102.77, 16311.72, 10702.55, 71619.68, 45717.05, -187500.02, 51069.06, 0.000, 0.000, 0.000, 23:07:11.800
120, 18413.90, 14107.75, 16331.59, 10371.43, 71661.57, 45743.78, -187500.02, 51116.52, 0.000, 0.000, 0.000, 23:07:11.800
121, 18400.56, 14127.96, 16306.63, 10599.15, 71836.74, 45730.48, -187500.02, 51137.19, 0.000, 0.000, 0.000, 23:07:11.801
122, 18384.96, 14133.28, 16277.34, 11098.38, 71898.52, 45701.27, -187500.02, 51090.45, 0.000, 0.000, 0.000, 23:07:11.801
123, 18400.13, 14119.26, 16297.93, 11173.61, 71766.35, 45691.32, -187500.02, 51053.48, 0.000, 0.000, 0.000, 23:07:11.801
124, 18419.54, 14101.02, 16322.65, 10735.03, 71624.02, 45704.15, -187500.02, 51058.54, 0.000, 0.000, 0.000, 23:07:11.802
125, 18418.48, 14106.61, 16322.72, 10396.15, 71664.34, 45718.43, -187500.02, 51100.40, 0.000, 0.000, 0.000, 23:07:11.802
126, 18396.24, 14129.27, 16306.87, 10638.18, 71837.45, 45736.50, -187500.02, 51121.14, 0.276, 0.902, 0.286, 23:07:11.802
127, 18396.04, 14145.39, 16297.80, 11115.52, 71901.78, 45717.16, -187500.02, 51089.78, 0.000, 0.000, 0.000, 23:07:11.803
128, 18392.22, 14109.07, 16296.23, 11208.48, 71766.24, 45700.35, -187500.02, 51061.64, 0.000, 0.000, 0.000, 23:07:11.803
129, 18421.10, 14099.10, 16332.49, 10769.88, 71615.05, 45713.70, -187500.02, 51075.48, 0.000, 0.000, 0.000, 23:07:11.803
130, 18430.09, 14116.36, 16350.55, 10426.31, 71668.88, 45751.16, -187500.02, 51129.64, 0.000, 0.000, 0.000, 23:07:11.803
131, 18411.82, 14144.16, 16325.67, 10640.01, 71847.71, 45759.23, -187500.02, 51162.29, 0.000, 0.000, 0.000, 23:07:11.803
132, 18389.41, 14139.83, 16283.76, 11132.31, 71906.50, 45711.53, -187500.02, 51106.19, 0.000, 0.000, 0.000, 23:07:11.803
133, 18400.25, 14113.74, 16299.41, 11218.07, 71766.82, 45679.14, -187500.02, 51049.39, 0.000, 0.000, 0.000, 23:07:11.804
134, 18422.93, 14099.35, 16336.42, 10790.46, 71622.34, 45707.91, -187500.02, 51058.98, 0.000, 0.000, 0.000, 23:07:11.804
135, 18422.78, 14108.73, 16340.82, 10462.43, 71670.11, 45750.20, -187500.02, 51123.33, 0.000, 0.000, 0.000, 23:07:11.804
136, 18417.37, 14144.16, 16325.78, 10683.49, 71847.13, 45755.20, -187500.02, 51156.39, 0.270, 0.904, 0.288, 23:07:11.804
137, 18419.27, 14165.40, 16325.11, 11147.78, 71912.71, 45736.16, -187500.02, 51129.50, 0.000, 0.000, 0.000, 23:07:11.804
138, 18405.95, 14121.18, 16297.80, 11223.62, 71777.26, 45699.21, -187500.02, 51058.60, 0.000, 0.000, 0.000, 23:07:11.805
139, 18415.78, 14095.32, 16309.93, 10807.60, 71617.80, 45713.00, -187500.02, 51052.16, 0.000, 0.000, 0.000, 23:07:11.805
140, 18415.80, 14103.64, 16324.17, 10487.95, 71667.45, 45733.70, -187500.02, 51111.96, 0.000, 0.000, 0.000, 23:07:11.805
141, 18399.55, 14127.22, 16310.47, 10726.98, 71835.13, 45755.43, -187500.02, 51141.28, 0.000, 0.000, 0.000, 23:07:11.805
142, 18388.18, 14135.22, 16286.89, 11212.55, 71889.91, 45742.75, -187500.02, 51100.31, 0.000, 0.000, 0.000, 23:07:11.805
143, 18409.54, 14123.49, 16300.59, 11272.25, 71756.27, 45736.85, -187500.02, 51061.24, 0.000, 0.000, 0.000, 23:07:11.806
144, 18419.04, 14098.99, 16313.58, 10846.83, 71616.53, 45744.45, -187500.02, 51056.43, 0.000, 0.000, 0.000, 23:07:11.806
145, 18429.95, 14117.23, 16332.44, 10514.66, 71659.34, 45775.19, -187500.02, 51113.16, 0.000, 0.000, 0.000, 23:07:11.806
146, 18411.56, 14142.06, 16313.51, 10746.16, 71850.53, 45779.37, -187500.02, 51146.87, 0.276, 0.900, 0.292, 23:07:11.806
147, 18393.43, 14138.77, 16284.54, 11237.09, 71912.27, 45734.51, -187500.02, 51092.35, 0.000, 0.000, 0.000, 23:07:11.806
148, 18412.36, 14127.49, 16306.51, 11298.83, 71773.93, 45730.73, -187500.02, 51061.64, 0.000, 0.000, 0.000, 23:07:11.806
149, 18441.73, 14120.42, 16342.25, 10852.51, 71631.44, 45771.75, -187500.02, 51078.94, 0.000, 0.000, 0.000, 23:07:11.807
150, 18441.44, 14129.34, 16346.23, 10523.96, 71679.52, 45798.90, -187500.02, 51125.57, 0.000, 0.000, 0.000, 23:07:11.807
151, 18424.25, 14156.43, 16328.60, 10757.80, 71857.26, 45805.00, -187500.02, 51151.09, 0.000, 0.000, 0.000, 23:07:11.807
152, 18408.18, 14158.73, 16296.61, 11231.21, 71917.98, 45759.83, -187500.02, 51108.67, 0.000, 0.000, 0.000, 23:07:11.807
153, 18408.54, 14127.02, 16294.73, 11305.98, 71769.44, 45737.01, -187500.02, 51056.30, 0.000, 0.000, 0.000, 23:07:11.807
154, 18428.70, 14108.49, 16321.27, 10877.01, 71621.27, 45758.78, -187500.02, 51078.96, 0.000, 0.000, 0.000, 23:07:11.807
155, 18430.80, 14124.89, 16342.72, 10555.28, 71676.21, 45775.16, -187500.02, 51131.00, 0.000, 0.000, 0.000, 23:07:11.808
156, 18419.71, 14155.78, 16332.93, 10780.13, 71849.30, 45784.95, -187500.02, 51150.11, 0.268, 0.904, 0.296, 23:07:11.808
157, 18414.39, 14163.12, 16313.38, 11238.55, 71896.09, 45764.93, -187500.02, 51131.29, 0.000, 0.000, 0.000, 23:07:11.808
158, 18413.84, 14135.49, 16311.86, 11296.95, 71765.39, 45750.60, -187500.02, 51093.23, 0.000, 0.000, 0.000, 23:07:11.808
159, 18425.64, 14109.78, 16329.38, 10882.66, 71622.43, 45762.22, -187500.02, 51091.55, 0.000, 0.000, 0.000, 23:07:11.808
160, 18430.22, 14122.61, 16349.72, 10568.42, 71670.38, 45790.32, -187500.02, 51146.67, 0.000, 0.000, 0.000, 23:07:11.808
161, 18407.06, 14141.75, 16322.07, 10815.99, 71843.94, 45786.45, -187500.02, 51159.63, 0.000, 0.000, 0.000, 23:07:11.809
162, 18402.55, 14152.52, 16300.63, 11270.31, 71897.06, 45750.29, -187500.02, 51109.56, 0.000, 0.000, 0.000, 23:07:11.809
163, 18412.96, 14131.53, 16306.98, 11317.13, 71764.27, 45761.57, -187500.02, 51074.25, 0.000, 0.000, 0.000, 23:07:11.809
164, 18425.39, 14105.47, 16329.16, 10896.23, 71632.89, 45781.67, -187500.02, 51079.23, 0.000, 0.000, 0.000, 23:07:11.811
165, 18419.51, 14107.55, 16328.19, 10586.25, 71684.37, 45806.46, -187500.02, 51124.76, 0.000, 0.000, 0.000, 23:07:11.811
166, 18408.40, 14137.66, 16303.94, 10816.95, 71856.70, 45796.62, -187500.02, 51145.62, 0.268, 0.898, 0.288, 23:07:11.812
167, 18397.25, 14142.95, 16282.22, 11280.88, 71916.49, 45768.64, -187500.02, 51102.21, 0.000, 0.000, 0.000, 23:07:11.812
168, 18411.31, 14123.91, 16310.38, 11337.18, 71791.70, 45759.45, -187500.02, 51060.03, 0.000, 0.000, 0.000, 23:07:11.812
169, 18419.49, 14097.76, 16334.99, 10930.27, 71663.38, 45767.54, -187500.02, 51062.45, 0.000, 0.000, 0.000, 23:07:11.812
170, 18418.35, 14105.87, 16331.28, 10618.20, 71701.71, 45778.47, -187500.02, 51099.30, 0.000, 0.000, 0.000, 23:07:11.812
171, 18415.00, 14143.02, 16314.76, 10831.07, 71858.82, 45786.83, -187500.02, 51134.78, 0.000, 0.000, 0.000, 23:07:11.812
172, 18403.78, 14152.30, 16308.99, 11286.60, 71926.08, 45786.65, -187500.02, 51106.88, 0.000, 0.000, 0.000, 23:07:11.813
173, 18402.44, 14119.33, 16303.67, 11351.00, 71790.83, 45761.21, -187500.02, 51053.19, 0.000, 0.000, 0.000, 23:07:11.813
174, 18417.66, 14103.79, 16333.04, 10934.03, 71650.66, 45776.13, -187500.02, 51060.84, 0.000, 0.000, 0.000, 23:07:11.813
175, 18413.95, 14109.00, 16341.85, 10633.86, 71707.43, 45791.93, -187500.02, 51119.71, 0.000, 0.000, 0.000, 23:07:11.813
176, 18408.74, 14143.56, 16318.02, 10860.60, 71866.09, 45777.82, -187500.02, 51137.30, 0.270, 0.892, 0.296, 23:07:11.813
177, 18395.17, 14144.45, 16293.04, 11322.25, 71914.48, 45775.10, -187500.02, 51095.32, 0.000, 0.000, 0.000, 23:07:11.813
178, 18406.57, 14125.65, 16315.10, 11368.63, 71782.42, 45778.54, -187500.02, 51064.57, 0.000, 0.000, 0.000, 23:07:11.814
179, 18421.73, 14108.20, 16331.17, 10952.42, 71633.74, 45764.97, -187500.02, 51063.00, 0.000, 0.000, 0.000, 23:07:11.814
180, 18426.73, 14122.75, 16347.08, 10638.22, 71689.66, 45817.39, -187500.02, 51127.13, 0.000, 0.000, 0.000, 23:07:11.814
181, 18408.02, 14145.10, 16327.41, 10883.27, 71856.92, 45799.33, -187500.02, 51149.55, 0.000, 0.000, 0.000, 23:07:11.814
182, 18419.69, 14165.46, 16318.14, 11326.03, 71910.23, 45776.80, -187500.02, 51121.16, 0.000, 0.000, 0.000, 23:07:11.814
183, 18426.02, 14135.64, 16318.14, 11378.62, 71780.73, 45767.30, -187500.02, 51077.85, 0.000, 0.000, 0.000, 23:07:11.814
184, 18435.56, 14112.35, 16336.26, 10965.77, 71651.29, 45781.04, -187500.02, 51075.50, 0.000, 0.000, 0.000, 23:07:11.815
185, 18440.48, 14128.18, 16354.21, 10660.24, 71694.52, 45800.27, -187500.02, 51126.26, 0.000, 0.000, 0.000, 23:07:11.815
186, 18429.19, 14158.13, 16337.85, 10883.38, 71865.95, 45802.48, -187500.02, 51155.83, 0.000, 0.000, 0.000, 23:07:11.815
187, 18416.12, 14162.85, 16311.14, 11338.91, 71917.63, 45769.46, -187500.02, 51105.45, 0.268, 0.892, 0.292, 23:07:11.815
188, 18420.47, 14138.15, 16315.86, 11389.13, 71788.50, 45755.79, -187500.02, 51054.38, 0.000, 0.000, 0.000, 23:07:11.815
189, 18427.69, 14110.01, 16328.75, 10982.93, 71655.58, 45755.83, -187500.02, 51053.59, 0.000, 0.000, 0.000, 23:07:11.816
190, 18436.12, 14125.56, 16343.75, 10674.39, 71698.65, 45768.68, -187500.02, 51097.34, 0.000, 0.000, 0.000, 23:07:11.816
191, 18418.64, 14151.13, 16322.58, 10903.61, 71870.49, 45801.43, -187500.02, 51118.37, 0.000, 0.000, 0.000, 23:07:11.816
192, 18407.38, 14154.31, 16306.51, 11367.36, 71921.52, 45751.92, -187500.02, 51080.62, 0.000, 0.000, 0.000, 23:07:11.816
193, 18420.65, 14138.24, 16314.16, 11409.51, 71785.84, 45729.41, -187500.02, 51041.41, 0.000, 0.000, 0.000, 23:07:11.816
194, 18436.93, 14123.13, 16339.35, 10988.59, 71650.91, 45739.27, -187500.02, 51052.72, 0.000, 0.000, 0.000, 23:07:11.816
195, 18439.21, 14136.05, 16351.95, 10681.63, 71703.95, 45759.56, -187500.02, 51116.85, 0.000, 0.000, 0.000, 23:07:11.817
196, 18424.25, 14161.71, 16330.81, 10922.69, 71865.48, 45761.26, -187500.02, 51129.48, 0.000, 0.000, 0.000, 23:07:11.817
197, 18417.75, 14170.54, 16317.24, 11362.38, 71913.70, 45767.83, -187500.02, 51085.04, 0.272, 0.892, 0.286, 23:07:11.817
198, 18418.04, 14137.57, 16322.34, 11403.01, 71788.30, 45730.75, -187500.02, 51042.40, 0.000, 0.000, 0.000, 23:07:11.818
199, 18437.19, 14120.80, 16347.39, 10978.06, 71655.20, 45744.05, -187500.02, 51057.75, 0.000, 0.000, 0.000, 23:07:11.818
200, 18434.58, 14128.22, 16348.62, 10669.58, 71705.38, 45770.98, -187500.02, 51118.97, 0.000, 0.000, 0.000, 23:07:11.818
201, 18413.10, 14149.79, 16320.73, 10909.80, 71873.44, 45764.88, -187500.02, 51138.13, 0.000, 0.000, 0.000, 23:07:11.818
202, 18402.93, 14159.00, 16301.89, 11370.02, 71932.96, 45742.73, -187500.02, 51085.80, 0.000, 0.000, 0.000, 23:07:11.818
203, 18412.99, 14136.65, 16311.68, 11419.98, 71794.98, 45739.29, -187500.02, 51049.28, 0.000, 0.000, 0.000, 23:07:11.818
204, 18441.53, 14128.16, 16348.83, 10995.36, 71661.12, 45754.22, -187500.02, 51059.81, 0.000, 0.000, 0.000, 23:07:11.819
205, 18443.50, 14138.30, 16353.38, 10695.73, 71722.34, 45761.82, -187500.02, 51099.91, 0.000, 0.000, 0.000, 23:07:11.819
206, 18428.63, 14164.99, 16332.51, 10919.74, 71893.76, 45766.27, -187500.02, 51118.19, 0.000, 0.000, 0.000, 23:07:11.819
207, 18408.47, 14159.36, 16301.39, 11378.47, 71937.43, 45751.09, -187500.02, 51075.03, 0.268, 0.892, 0.288, 23:07:11.819
208, 18427.18, 14141.86, 16310.92, 11413.67, 71801.71, 45741.88, -187500.02, 51041.61, 0.000, 0.000, 0.000, 23:07:11.819
209, 18437.42, 14112.82, 16326.56, 11004.61, 71671.45, 45757.84, -187500.02, 51038.26, 0.000, 0.000, 0.000, 23:07:11.820
210, 18445.96, 14128.09, 16344.51, 10695.76, 71721.96, 45791.30, -187500.02, 51100.78, 0.000, 0.000, 0.000, 23:07:12.268
211, 18424.95, 14149.39, 16329.00, 10924.28, 71893.89, 45785.51, -187500.02, 51122.37, 0.000, 0.000, 0.000, 23:07:12.268
212, 18407.13, 14149.62, 16306.22, 11369.26, 71935.76, 45753.75, -187500.02, 51062.31, 0.000, 0.000, 0.000, 23:07:12.269
213, 18408.67, 14120.67, 16306.94, 11415.21, 71797.22, 45748.77, -187500.02, 51021.14, 0.000, 0.000, 0.000, 23:07:12.269
214, 18425.06, 14101.07, 16328.98, 11002.00, 71665.91, 45757.04, -187500.02, 51022.59, 0.000, 0.000, 0.000, 23:07:12.269
215, 18426.62, 14114.03, 16332.13, 10704.03, 71720.29, 45779.12, -187500.02, 51073.51, 0.000, 0.000, 0.000, 23:07:12.269
216, 18411.53, 14139.09, 16306.92, 10940.06, 71875.61, 45786.56, -187500.02, 51091.77, 0.000, 0.000, 0.000, 23:07:12.270
217, 18406.19, 14146.11, 16286.40, 11384.53, 71915.93, 45749.50, -187500.02, 51044.77, 0.276, 0.894, 0.288, 23:07:12.270
218, 18431.27, 14142.53, 16316.37, 11410.70, 71796.84, 45751.58, -187500.02, 51013.00, 0.000, 0.000, 0.000, 23:07:12.270
219, 18436.81, 14115.75, 16334.41, 11002.09, 71665.34, 45759.65, -187500.02, 51029.70, 0.000, 0.000, 0.000, 23:07:12.270
220, 18441.87, 14128.27, 16352.27, 10705.68, 71704.62, 45771.92, -187500.02, 51099.08, 0.000, 0.000, 0.000, 23:07:12.270
221, 18419.47, 14144.00, 16325.18, 10958.19, 71872.01, 45776.95, -187500.02, 51124.20, 0.000, 0.000, 0.000, 23:07:12.270
222, 18412.61, 14152.54, 16299.56, 11415.68, 71920.98, 45775.95, -187500.02, 51075.66, 0.000, 0.000, 0.000, 23:07:12.271
223, 18420.70, 14132.74, 16301.08, 11459.25, 71784.81, 45747.22, -187500.02, 51021.50, 0.000, 0.000, 0.000, 23:07:12.271
224, 18436.63, 14118.77, 16326.67, 11045.96, 71666.82, 45767.34, -187500.02, 51039.29, 0.000, 0.000, 0.000, 23:07:12.271
225, 18446.25, 14141.01, 16358.48, 10755.79, 71727.73, 45805.81, -187500.02, 51113.88, 0.000, 0.000, 0.000, 23:07:12.271
226, 18434.18, 14170.42, 16337.58, 10988.79, 71894.27, 45816.49, -187500.02, 51151.59, 0.000, 0.000, 0.000, 23:07:12.271
227, 18431.99, 14181.02, 16314.52, 11414.81, 71942.02, 45796.44, -187500.02, 51118.08, 0.272, 0.900, 0.288, 23:07:12.272
228, 18436.46, 14156.75, 16317.91, 11444.61, 71806.20, 45777.13, -187500.02, 51063.18, 0.000, 0.000, 0.000, 23:07:12.272
229, 18459.32, 14144.94, 16350.88, 11019.57, 71663.55, 45793.40, -187500.02, 51070.63, 0.000, 0.000, 0.000, 23:07:12.272
230, 18465.18, 14157.17, 16356.13, 10704.56, 71709.11, 45816.18, -187500.02, 51131.54, 0.000, 0.000, 0.000, 23:07:12.272
231, 18440.39, 14169.35, 16311.79, 10947.64, 71870.42, 45792.93, -187500.02, 51137.08, 0.000, 0.000, 0.000, 23:07:12.272
232, 18438.56, 14180.33, 16300.68, 11392.82, 71913.25, 45782.54, -187500.02, 51092.40, 0.000, 0.000, 0.000, 23:07:12.273
233, 18448.82, 14158.42, 16319.25, 11430.10, 71786.83, 45782.92, -187500.02, 51047.63, 0.000, 0.000, 0.000, 23:07:12.273
234, 18454.34, 14128.11, 16336.11, 11030.41, 71655.53, 45777.73, -187500.02, 51046.15, 0.000, 0.000, 0.000, 23:07:12.273
235, 18460.98, 14144.83, 16346.30, 10737.91, 71709.98, 45810.28, -187500.02, 51107.80, 0.000, 0.000, 0.000, 23:07:12.273
236, 18448.77, 14174.89, 16321.40, 10978.08, 71867.38, 45797.00, -187500.02, 51129.93, 0.000, 0.000, 0.000, 23:07:12.273
237, 18443.68, 14186.70, 16302.87, 11410.45, 71919.13, 45757.33, -187500.02, 51084.78, 0.270, 0.902, 0.290, 23:07:12.273
238, 18452.71, 14167.76, 16310.49, 11440.61, 71793.71, 45784.20, -187500.02, 51048.61, 0.000, 0.000, 0.000, 23:07:12.274
239, 18455.21, 14139.00, 16333.83, 11049.45, 71679.85, 45789.69, -187500.02, 51055.27, 0.000, 0.000, 0.000, 23:07:12.274
240, 18454.18, 14147.00, 16350.19, 10769.76, 71731.62, 45800.45, -187500.02, 51101.03, 0.000, 0.000, 0.000, 23:07:12.274
241, 18432.95, 14170.51, 16328.71, 11010.89, 71886.94, 45800.15, -187500.02, 51136.63, 0.000, 0.000, 0.000, 23:07:12.274
242, 18440.70, 14195.57, 16324.33, 11433.16, 71929.32, 45790.03, -187500.02, 51120.92, 0.000, 0.000, 0.000, 23:07:12.274
243, 18450.80, 14177.84, 16334.86, 11459.27, 71805.67, 45788.17, -187500.02, 51083.82, 0.000, 0.000, 0.000, 23:07:12.274
244, 18455.30, 14149.19, 16351.11, 11066.95, 71667.38, 45799.80, -187500.02, 51078.88, 0.000, 0.000, 0.000, 23:07:12.275
245, 18457.38, 14160.23, 16360.54, 10770.37, 71715.86, 45819.75, -187500.02, 51128.03, 0.000, 0.000, 0.000, 23:07:12.275
246, 18443.72, 14185.40, 16344.33, 10998.69, 71880.03, 45819.73, -187500.02, 51149.51, 0.000, 0.000, 0.000, 23:07:12.275
247, 18437.60, 14193.00, 16317.71, 11427.98, 71932.02, 45787.77, -187500.02, 51108.98, 0.000, 0.000, 0.000, 23:07:12.275
248, 18436.03, 14162.09, 16310.42, 11477.91, 71803.48, 45784.17, -187500.02, 51072.57, 0.268, 0.906, 0.290, 23:07:12.275
249, 18456.79, 14148.25, 16356.49, 11080.94, 71679.63, 45815.91, -187500.02, 51088.17, 0.000, 0.000, 0.000, 23:07:12.275
250, 18463.30, 14164.99, 16378.82, 10781.94, 71738.57, 45826.68, -187500.02, 51146.38, 0.000, 0.000, 0.000, 23:07:12.276
251, 18444.46, 14182.54, 16344.76, 11005.73, 71890.34, 45820.76, -187500.02, 51152.97, 0.000, 0.000, 0.000, 23:07:12.276
252, 18431.38, 14185.44, 16320.55, 11448.36, 71929.23, 45823.71, -187500.02, 51121.75, 0.000, 0.000, 0.000, 23:07:12.276
253, 18436.70, 14163.74, 16321.76, 11490.18, 71791.95, 45795.55, -187500.02, 51076.44, 0.000, 0.000, 0.000, 23:07:12.276
254, 18456.01, 14145.86, 16343.59, 11078.31, 71647.64, 45802.25, -187500.02, 51079.21, 0.000, 0.000, 0.000, 23:07:12.276
255, 18459.59, 14153.26, 16357.05, 10776.27, 71688.55, 45826.86, -187500.02, 51136.34, 0.000, 0.000, 0.000, 23:07:12.276
0, 18446.92, 14172.70, 16345.34, 11011.90, 71854.55, 45825.05, -187500.02, 51149.80, 0.000, 0.000, 0.000, 23:07:12.277
1, 18435.99, 14179.12, 16321.89, 11461.95, 71907.15, 45802.07, -187500.02, 51102.08, 0.000, 0.000, 0.000, 23:07:12.277
2, 18448.10, 14164.34, 16330.79, 11501.42, 71786.16, 45784.46, -187500.02, 51055.81, 0.276, 0.902, 0.294, 23:07:12.277
3, 18454.56, 14139.02, 16347.10, 11102.51, 71659.38, 45800.02, -187500.02, 51071.30, 0.000, 0.000, 0.000, 23:07:12.277
4, 18447.45, 14139.51, 16344.82, 10812.46, 71711.05, 45824.72, -187500.02, 51127.25, 0.000, 0.000, 0.000, 23:07:12.277
5, 18442.94, 14172.48, 16331.30, 11034.70, 71875.97, 45829.25, -187500.02, 51153.57, 0.000, 0.000, 0.000, 23:07:12.277
6, 18442.89, 14187.86, 16315.39, 11462.82, 71922.50, 45811.89, -187500.02, 51104.42, 0.000, 0.000, 0.000, 23:07:12.278
7, 18447.21, 14163.88, 16326.12, 11505.76, 71796.23, 45830.13, -187500.02, 51065.89, 0.000, 0.000, 0.000, 23:07:12.278
8, 18458.38, 14144.92, 16353.23, 11101.87, 71656.45, 45845.13, -187500.02, 51078.25, 0.000, 0.000, 0.000, 23:07:12.278
9, 18470.45, 14166.63, 16366.17, 10806.44, 71708.87, 45862.87, -187500.02, 51135.96, 0.000, 0.000, 0.000, 23:07:12.278
10, 18461.82, 14192.26, 16332.51, 11042.16, 71880.15, 45872.62, -187500.02, 51150.87, 0.000, 0.000, 0.000, 23:07:12.278
11, 18451.65, 14199.03, 16317.96, 11478.94, 71929.81, 45844.75, -187500.02, 51114.70, 0.000, 0.000, 0.000, 23:07:12.279
12, 18448.37, 14168.28, 16329.02, 11528.74, 71810.07, 45842.75, -187500.02, 51085.20, 0.276, 0.906, 0.294, 23:07:12.279
13, 18453.80, 14138.91, 16343.59, 11146.01, 71692.41, 45859.16, -187500.02, 51078.96, 0.000, 0.000, 0.000, 23:07:12.279
14, 18462.63, 14153.55, 16358.66, 10856.22, 71730.16, 45867.75, -187500.02, 51129.93, 0.000, 0.000, 0.000, 23:07:12.279
15, 18446.47, 14177.58, 16330.99, 11083.65, 71892.98, 45866.43, -187500.02, 51146.18, 0.000, 0.000, 0.000, 23:07:12.279
16, 18430.09, 14174.76, 16306.18, 11534.35, 71931.89, 45856.30, -187500.02, 51103.86, 0.000, 0.000, 0.000, 23:07:12.279
17, 18453.89, 14168.23, 16329.83, 11563.47, 71811.34, 45857.60, -187500.02, 51066.54, 0.000, 0.000, 0.000, 23:07:12.280
18, 18466.14, 14148.03, 16351.55, 11155.26, 71689.62, 45867.50, -187500.02, 51073.53, 0.000, 0.000, 0.000, 23:07:12.280
19, 18463.95, 14152.48, 16357.34, 10866.72, 71732.58, 45886.14, -187500.02, 51123.54, 0.000, 0.000, 0.000, 23:07:12.280
20, 18452.44, 14178.56, 16342.83, 11089.55, 71894.90, 45893.98, -187500.02, 51138.09, 0.000, 0.000, 0.000, 23:07:12.280
21, 18433.01, 14177.82, 16320.21, 11535.62, 71955.85, 45872.11, -187500.02, 51082.74, 0.000, 0.000, 0.000, 23:07:12.280
22, 18440.66, 14156.19, 16320.53, 11570.96, 71820.71, 45856.14, -187500.02, 51045.37, 0.280, 0.908, 0.288, 23:07:12.280
23, 18450.74, 14128.63, 16352.18, 11177.48, 71695.54, 45866.40, -187500.02, 51065.64, 0.000, 0.000, 0.000, 23:07:12.280
24, 18461.82, 14140.88, 16364.23, 10879.00, 71751.02, 45903.33, -187500.02, 51133.46, 0.000, 0.000, 0.000, 23:07:12.281
25, 18445.42, 14164.37, 16337.63, 11105.96, 71906.32, 45897.23, -187500.02, 51147.54, 0.000, 0.000, 0.000, 23:07:12.281
26, 18439.88, 14174.60, 16314.49, 11526.44, 71953.86, 45848.10, -187500.02, 51104.60, 0.000, 0.000, 0.000, 23:07:12.281
27, 18440.81, 14147.18, 16308.46, 11577.06, 71807.84, 45834.53, -187500.02, 51046.91, 0.000, 0.000, 0.000, 23:07:12.281
28, 18463.50, 14135.40, 16347.39, 11166.69, 71671.45, 45870.38, -187500.02, 51042.04, 0.000, 0.000, 0.000, 23:07:12.281
29, 18462.90, 14145.46, 16351.40, 10870.73, 71715.30, 45873.96, -187500.02, 51089.80, 0.000, 0.000, 0.000, 23:07:12.282
30, 18445.11, 14167.85, 16323.03, 11101.04, 71867.36, 45856.19, -187500.02, 51123.49, 0.000, 0.000, 0.000, 23:07:12.282
31, 18432.61, 14171.09, 16295.96, 11543.63, 71919.13, 45843.34, -187500.02, 51088.66, 0.000, 0.000, 0.000, 23:07:12.282
32, 18443.72, 14153.57, 16310.72, 11587.10, 71789.24, 45847.11, -187500.02, 51055.54, 0.276, 0.908, 0.290, 23:07:12.282
33, 18456.68, 14136.72, 16338.41, 11180.92, 71666.46, 45864.57, -187500.02, 51059.27, 0.000, 0.000, 0.000, 23:07:12.282
34, 18444.84, 14133.66, 16337.92, 10902.22, 71717.65, 45879.73, -187500.02, 51092.53, 0.000, 0.000, 0.000, 23:07:12.282
35, 18442.51, 14168.23, 16333.00, 11128.20, 71879.20, 45882.05, -187500.02, 51124.50, 0.000, 0.000, 0.000, 23:07:12.283
36, 18440.86, 14186.52, 16312.10, 11546.31, 71932.36, 45861.24, -187500.02, 51101.34, 0.000, 0.000, 0.000, 23:07:12.283
37, 18438.60, 14157.33, 16309.98, 11597.74, 71802.83, 45835.78, -187500.02, 51044.54, 0.000, 0.000, 0.000, 23:07:12.283
38, 18446.74, 14131.87, 16328.91, 11211.03, 71665.75, 45840.99, -187500.02, 51035.71, 0.000, 0.000, 0.000, 23:07:12.283
39, 18456.91, 14147.67, 16346.30, 10922.72, 71708.51, 45869.67, -187500.02, 51096.31, 0.000, 0.000, 0.000, 23:07:12.283
40, 18450.18, 14178.25, 16342.39, 11149.36, 71873.69, 45877.38, -187500.02, 51127.65, 0.000, 0.000, 0.000, 23:07:12.283
41, 18438.13, 14179.25, 16313.82, 11592.60, 71918.77, 45844.43, -187500.02, 51072.93, 0.000, 0.000, 0.000, 23:07:12.283
42, 18448.86, 14163.12, 16318.45, 11632.72, 71785.89, 45817.88, -187500.02, 51037.75, 0.278, 0.908, 0.294, 23:07:12.284
43, 18466.25, 14147.67, 16340.04, 11225.47, 71657.32, 45841.84, -187500.02, 51052.70, 0.000, 0.000, 0.000, 23:07:12.284
44, 18464.31, 14157.82, 16348.31, 10939.68, 71711.97, 45871.70, -187500.02, 51090.81, 0.000, 0.000, 0.000, 23:07:12.284
45, 18448.82, 14180.10, 16332.20, 11168.23, 71868.52, 45857.35, -187500.02, 51116.89, 0.000, 0.000, 0.000, 23:07:12.284
46, 18434.73, 14182.16, 16311.34, 11611.98, 71917.74, 45857.46, -187500.02, 51098.95, 0.000, 0.000, 0.000, 23:07:12.284
47, 18444.32, 14164.99, 16317.51, 11651.29, 71796.80, 45845.13, -187500.02, 51055.41, 0.000, 0.000, 0.000, 23:07:12.284
48, 18457.13, 14139.89, 16333.60, 11250.10, 71675.29, 45844.61, -187500.02, 51044.74, 0.000, 0.000, 0.000, 23:07:12.285
49, 18458.99, 14149.37, 16339.50, 10962.26, 71715.13, 45867.03, -187500.02, 51106.55, 0.000, 0.000, 0.000, 23:07:12.285
50, 18448.15, 14179.12, 16325.58, 11197.75, 71874.11, 45872.91, -187500.02, 51144.05, 0.000, 0.000, 0.000, 23:07:12.285
51, 18431.09, 14179.12, 16295.92, 11653.64, 71921.81, 45846.20, -187500.02, 51094.63, 0.000, 0.000, 0.000, 23:07:12.285
52, 18440.21, 14157.06, 16310.34, 11703.89, 71793.47, 45840.99, -187500.02, 51047.83, 0.276, 0.898, 0.292, 23:07:12.285
53, 18453.89, 14135.94, 16334.81, 11309.60, 71659.20, 45852.99, -187500.02, 51058.33, 0.000, 0.000, 0.000, 23:07:12.285
54, 18459.66, 14143.49, 16347.98, 11028.04, 71715.81, 45878.70, -187500.02, 51119.58, 0.000, 0.000, 0.000, 23:07:12.286
55, 18457.38, 14174.27, 16337.22, 11245.41, 71881.17, 45879.73, -187500.02, 51142.82, 0.000, 0.000, 0.000, 23:07:12.286
56, 18447.81, 14180.26, 16306.11, 11676.06, 71932.05, 45848.32, -187500.02, 51102.84, 0.000, 0.000, 0.000, 23:07:12.286
57, 18454.38, 14159.29, 16314.56, 11724.09, 71799.14, 45836.27, -187500.02, 51060.19, 0.000, 0.000, 0.000, 23:07:12.286
58, 18457.00, 14133.68, 16333.72, 11329.90, 71665.16, 45833.10, -187500.02, 51054.96, 0.000, 0.000, 0.000, 23:07:12.286
59, 18471.86, 14155.38, 16356.63, 11028.69, 71709.04, 45872.44, -187500.02, 51115.71, 0.000, 0.000, 0.000, 23:07:12.287
60, 18460.01, 14180.86, 16337.38, 11240.63, 71872.97, 45877.91, -187500.02, 51140.92, 0.000, 0.000, 0.000, 23:07:12.287
61, 18429.26, 14171.25, 16303.32, 11699.66, 71924.07, 45847.70, -187500.02, 51085.89, 0.000, 0.000, 0.000, 23:07:12.287
62, 18437.80, 14152.45, 16308.32, 11767.41, 71788.05, 45829.59, -187500.02, 51051.47, 0.000, 0.000, 0.000, 23:07:12.287
63, 18468.96, 14146.44, 16342.23, 11357.32, 71658.44, 45869.89, -187500.02, 51081.29, 0.282, 0.898, 0.292, 23:07:12.287
64, 18472.96, 14155.74, 16349.27, 11044.73, 71705.51, 45891.17, -187500.02, 51117.12, 0.000, 0.000, 0.000, 23:07:12.288
65, 18454.90, 14178.76, 16337.34, 11264.23, 71865.91, 45897.20, -187500.02, 51134.73, 0.000, 0.000, 0.000, 23:07:12.288
66, 18446.87, 14190.76, 16325.29, 11717.19, 71930.57, 45879.32, -187500.02, 51118.26, 0.000, 0.000, 0.000, 23:07:12.288
67, 18470.72, 14181.53, 16343.89, 11765.20, 71808.30, 45872.06, -187500.02, 51089.05, 0.000, 0.000, 0.000, 23:07:12.288
68, 18486.43, 14164.84, 16360.83, 11352.79, 71684.79, 45892.76, -187500.02, 51092.53, 0.000, 0.000, 0.000, 23:07:12.288
69, 18482.72, 14167.34, 16365.25, 11035.64, 71736.22, 45921.25, -187500.02, 51147.76, 0.000, 0.000, 0.000, 23:07:12.288
70, 18461.06, 14187.86, 16345.00, 11257.08, 71898.90, 45915.69, -187500.02, 51175.95, 0.000, 0.000, 0.000, 23:07:12.289
71, 18451.72, 14200.02, 16320.97, 11732.74, 71956.30, 45881.83, -187500.02, 51126.89, 0.000, 0.000, 0.000, 23:07:12.289
72, 18450.20, 14174.27, 16313.15, 11885.72, 71848.18, 45866.71, -187500.02, 51071.28, 0.000, 0.000, 0.000, 23:07:12.289
73, 18477.56, 14156.43, 16342.12, 11480.73, 71680.59, 45883.97, -187500.02, 51068.95, 0.278, 0.898, 0.282, 23:07:12.289
74, 18496.29, 14173.15, 16370.15, 10975.73, 71681.22, 45904.51, -187500.02, 51130.64, 0.000, 0.000, 0.000, 23:07:12.749
75, 18475.62, 14205.96, 16363.78, 11092.88, 71886.67, 45935.76, -187500.02, 51173.33, 0.000, 0.000, 0.000, 23:07:12.749
76, 18450.98, 14215.40, 16329.13, 11697.09, 72020.02, 45891.68, -187500.02, 51131.91, 0.000, 0.000, 0.000, 23:07:12.750
77, 18443.59, 14175.54, 16310.98, 11975.21, 71885.91, 45846.42, -187500.02, 51061.48, 0.000, 0.000, 0.000, 23:07:12.750
78, 18472.44, 14149.28, 16348.54, 11543.78, 71658.26, 45875.23, -187500.02, 51046.80, 0.000, 0.000, 0.000, 23:07:12.750
79, 18490.21, 14166.04, 16370.42, 10989.91, 71644.47, 45898.81, -187500.02, 51105.32, 0.000, 0.000, 0.000, 23:07:12.751
80, 18473.45, 14203.64, 16346.25, 11083.02, 71868.10, 45912.88, -187500.02, 51153.04, 0.000, 0.000, 0.000, 23:07:12.751
81, 18447.79, 14211.44, 16314.36, 11713.34, 72021.99, 45880.66, -187500.02, 51133.32, 0.000, 0.000, 0.000, 23:07:12.751
82, 18438.80, 14170.89, 16306.40, 12034.54, 71893.35, 45843.63, -187500.02, 51070.25, 0.000, 0.000, 0.000, 23:07:12.751
83, 18462.96, 14137.32, 16337.54, 11612.60, 71650.98, 45866.79, -187500.02, 51048.84, 0.276, 0.906, 0.288, 23:07:12.752
84, 18479.59, 14150.31, 16362.08, 11032.69, 71624.58, 45895.82, -187500.02, 51094.10, 0.000, 0.000, 0.000, 23:07:12.752
85, 18478.54, 14205.23, 16358.71, 11080.90, 71856.41, 45912.14, -187500.02, 51145.21, 0.000, 0.000, 0.000, 23:07:12.752
86, 18465.76, 14229.32, 16326.43, 11729.50, 72045.80, 45900.82, -187500.02, 51142.51, 0.000, 0.000, 0.000, 23:07:12.752
87, 18455.48, 14186.41, 16305.28, 12097.72, 71922.48, 45892.78, -187500.02, 51085.16, 0.000, 0.000, 0.000, 23:07:12.753
88, 18474.41, 14144.74, 16335.59, 11679.30, 71661.73, 45896.04, -187500.02, 51051.29, 0.000, 0.000, 0.000, 23:07:12.753
89, 18501.95, 14166.40, 16379.00, 11033.89, 71631.46, 45941.80, -187500.02, 51125.19, 0.000, 0.000, 0.000, 23:07:12.753
90, 18492.67, 14214.21, 16363.17, 11047.08, 71862.04, 45976.82, -187500.02, 51191.04, 0.000, 0.000, 0.000, 23:07:12.753
91, 18475.04, 14240.97, 16331.73, 11727.94, 72058.24, 45945.26, -187500.02, 51166.02, 0.000, 0.000, 0.000, 23:07:12.754
92, 18463.97, 14196.26, 16309.08, 12159.46, 71941.77, 45897.36, -187500.02, 51083.43, 0.000, 0.000, 0.000, 23:07:12.754
93, 18484.09, 14149.57, 16328.22, 11742.42, 71655.42, 45913.48, -187500.02, 51039.49, 0.276, 0.900, 0.286, 23:07:12.754
94, 18507.98, 14166.27, 16355.73, 11037.02, 71589.20, 45936.16, -187500.02, 51079.39, 0.000, 0.000, 0.000, 23:07:12.754
95, 18512.52, 14234.28, 16361.21, 11004.21, 71830.66, 45968.26, -187500.02, 51152.01, 0.000, 0.000, 0.000, 23:07:12.754
96, 18470.34, 14252.61, 16316.13, 11728.43, 72062.73, 45957.11, -187500.02, 51147.61, 0.000, 0.000, 0.000, 23:07:12.755
97, 18441.46, 14188.02, 16291.63, 12247.62, 71957.80, 45920.50, -187500.02, 51066.11, 0.000, 0.000, 0.000, 23:07:12.755
98, 18468.38, 14143.27, 16335.12, 11843.65, 71646.52, 45910.91, -187500.02, 51042.46, 0.000, 0.000, 0.000, 23:07:12.755
99, 18498.77, 14164.39, 16370.39, 11067.67, 71568.27, 45967.01, -187500.02, 51106.79, 0.000, 0.000, 0.000, 23:07:12.755
100, 18493.56, 14227.62, 16369.63, 10983.47, 71828.34, 45996.38, -187500.02, 51185.56, 0.000, 0.000, 0.000, 23:07:12.755
101, 18454.47, 14246.08, 16314.83, 11733.79, 72080.88, 45964.28, -187500.02, 51172.55, 0.000, 0.000, 0.000, 23:07:12.756
102, 18429.57, 14195.21, 16296.86, 12286.17, 71975.32, 45919.33, -187500.02, 51088.46, 0.000, 0.000, 0.000, 23:07:12.756
103, 18454.02, 14149.08, 16331.61, 11860.98, 71656.96, 45924.52, -187500.02, 51046.87, 0.280, 0.898, 0.290, 23:07:12.756
104, 18483.24, 14171.03, 16378.93, 11048.22, 71580.59, 45977.45, -187500.02, 51117.72, 0.000, 0.000, 0.000, 23:07:12.757
105, 18463.19, 14219.80, 16368.56, 10973.61, 71842.88, 46001.52, -187500.02, 51191.37, 0.000, 0.000, 0.000, 23:07:12.757
106, 18426.69, 14241.10, 16323.55, 11741.21, 72095.82, 45971.95, -187500.02, 51176.98, 0.000, 0.000, 0.000, 23:07:12.757
107, 18410.13, 14198.32, 16310.51, 12288.97, 72000.58, 45940.14, -187500.02, 51110.12, 0.000, 0.000, 0.000, 23:07:12.758
108, 18428.54, 14151.40, 16346.39, 11868.31, 71668.09, 45936.61, -187500.02, 51066.16, 0.000, 0.000, 0.000, 23:07:12.758
109, 18443.41, 14164.03, 16374.51, 11072.90, 71594.24, 45989.45, -187500.02, 51112.47, 0.000, 0.000, 0.000, 23:07:12.758
110, 18430.67, 14221.72, 16362.01, 11018.85, 71865.53, 46031.88, -187500.02, 51196.60, 0.000, 0.000, 0.000, 23:07:12.759
111, 18405.05, 14245.55, 16318.87, 11788.96, 72112.52, 46000.65, -187500.02, 51196.94, 0.000, 0.000, 0.000, 23:07:12.760
112, 18395.26, 14199.44, 16294.94, 12339.64, 71993.05, 45973.40, -187500.02, 51116.71, 0.000, 0.000, 0.000, 23:07:12.760
113, 18419.71, 14150.08, 16331.53, 11918.15, 71678.17, 45957.80, -187500.02, 51074.45, 0.282, 0.898, 0.292, 23:07:12.760
114, 18448.15, 14166.65, 16376.43, 11118.76, 71599.84, 46016.94, -187500.02, 51134.40, 0.000, 0.000, 0.000, 23:07:12.761
115, 18449.04, 14236.74, 16370.80, 11024.37, 71867.80, 46039.77, -187500.02, 51223.11, 0.000, 0.000, 0.000, 23:07:12.761
116, 18418.02, 14260.37, 16318.78, 11791.91, 72117.09, 46010.33, -187500.02, 51203.35, 0.000, 0.000, 0.000, 23:07:12.761
117, 18404.58, 14213.25, 16295.34, 12334.50, 71997.83, 45973.07, -187500.02, 51124.18, 0.000, 0.000, 0.000, 23:07:12.762
118, 18418.60, 14155.61, 16325.85, 11924.21, 71673.52, 45957.93, -187500.02, 51067.16, 0.000, 0.000, 0.000, 23:07:12.762
119, 18448.21, 14172.15, 16359.38, 11123.99, 71579.52, 46012.92, -187500.02, 51117.72, 0.000, 0.000, 0.000, 23:07:12.762
120, 18448.41, 14237.86, 16365.34, 11037.07, 71849.23, 46042.94, -187500.02, 51203.24, 0.000, 0.000, 0.000, 23:07:12.763
121, 18415.76, 14257.48, 16314.22, 11808.49, 72106.34, 46005.99, -187500.02, 51182.27, 0.000, 0.000, 0.000, 23:07:12.763
122, 18410.71, 14211.46, 16302.33, 12356.40, 71995.70, 45966.34, -187500.02, 51113.14, 0.000, 0.000, 0.000, 23:07:12.763
123, 18436.08, 14163.65, 16344.11, 11931.38, 71685.04, 45967.23, -187500.02, 51076.51, 0.000, 0.000, 0.000, 23:07:12.763
124, 18460.10, 14175.50, 16371.07, 11141.18, 71595.12, 45989.56, -187500.02, 51112.87, 0.280, 0.898, 0.292, 23:07:12.764
125, 18459.54, 14243.13, 16362.33, 11055.53, 71841.99, 46006.13, -187500.02, 51183.21, 0.000, 0.000, 0.000, 23:07:12.764
126, 18426.46, 14266.58, 16319.39, 11828.25, 72101.43, 46007.29, -187500.02, 51178.32, 0.000, 0.000, 0.000, 23:07:12.764
127, 18412.90, 14215.46, 16305.66, 12385.06, 71977.13, 45957.35, -187500.02, 51107.06, 0.000, 0.000, 0.000, 23:07:12.766
128, 18437.75, 14165.89, 16343.73, 11977.92, 71660.43, 45968.68, -187500.02, 51075.23, 0.000, 0.000, 0.000, 23:07:12.766
129, 18473.18, 14189.56, 16380.88, 11178.69, 71571.36, 46002.57, -187500.02, 51125.79, 0.000, 0.000, 0.000, 23:07:12.766
130, 18476.82, 14260.28, 16372.74, 11066.95, 71832.89, 46023.52, -187500.02, 51189.18, 0.000, 0.000, 0.000, 23:07:12.767
131, 18443.92, 14285.85, 16335.48, 11826.49, 72099.55, 45997.90, -187500.02, 51191.19, 0.000, 0.000, 0.000, 23:07:12.767
132, 18426.06, 14235.29, 16317.09, 12389.66, 71988.75, 45974.95, -187500.02, 51141.59, 0.000, 0.000, 0.000, 23:07:12.767
133, 18447.99, 14183.83, 16345.36, 11971.82, 71653.95, 45984.06, -187500.02, 51088.80, 0.000, 0.000, 0.000, 23:07:12.767
134, 18476.64, 14203.10, 16389.39, 11169.21, 71560.96, 46009.21, -187500.02, 51131.87, 0.278, 0.908, 0.290, 23:07:12.768
135, 18470.77, 14265.73, 16373.08, 11074.44, 71831.75, 46033.89, -187500.02, 51206.53, 0.000, 0.000, 0.000, 23:07:12.768
136, 18441.40, 14291.35, 16329.16, 11835.27, 72102.32, 46014.17, -187500.02, 51199.86, 0.000, 0.000, 0.000, 23:07:12.768
137, 18420.14, 14237.14, 16307.00, 12400.32, 72000.20, 45984.38, -187500.02, 51129.05, 0.000, 0.000, 0.000, 23:07:12.769
138, 18439.85, 14182.41, 16335.12, 11998.93, 71666.84, 45970.25, -187500.02, 51078.07, 0.000, 0.000, 0.000, 23:07:12.769
139, 18473.22, 14207.42, 16383.96, 11191.43, 71583.83, 46012.25, -187500.02, 51135.94, 0.000, 0.000, 0.000, 23:07:12.769
140, 18470.32, 14269.89, 16377.01, 11097.53, 71848.70, 46041.39, -187500.02, 51210.82, 0.000, 0.000, 0.000, 23:07:12.769
141, 18441.28, 14289.60, 16327.10, 11856.04, 72108.52, 46002.82, -187500.02, 51206.75, 0.000, 0.000, 0.000, 23:07:12.770
142, 18416.92, 14225.05, 16296.01, 12432.51, 71985.78, 45960.01, -187500.02, 51120.65, 0.000, 0.000, 0.000, 23:07:12.770
143, 18439.92, 14169.66, 16323.46, 12017.06, 71647.33, 45955.50, -187500.02, 51063.61, 0.000, 0.000, 0.000, 23:07:12.770
144, 18463.68, 14188.28, 16364.96, 11218.14, 71567.53, 45989.14, -187500.02, 51100.27, 0.278, 0.904, 0.294, 23:07:12.770
145, 18459.43, 14249.30, 16351.04, 11128.69, 71826.59, 46024.88, -187500.02, 51187.04, 0.000, 0.000, 0.000, 23:07:12.770
146, 18443.45, 14280.71, 16323.57, 11870.43, 72095.77, 46003.89, -187500.02, 51196.45, 0.000, 0.000, 0.000, 23:07:12.770
147, 18424.25, 14223.78, 16293.04, 12426.79, 71987.73, 45946.09, -187500.02, 51104.54, 0.000, 0.000, 0.000, 23:07:12.771
148, 18440.01, 14169.35, 16322.16, 12015.43, 71657.12, 45940.90, -187500.02, 51048.14, 0.000, 0.000, 0.000, 23:07:12.771
149, 18469.07, 14189.85, 16364.49, 11217.65, 71574.04, 45979.66, -187500.02, 51105.12, 0.000, 0.000, 0.000, 23:07:12.771
150, 18466.65, 14252.79, 16351.22, 11125.56, 71832.29, 45995.22, -187500.02, 51181.25, 0.000, 0.000, 0.000, 23:07:12.771
151, 18440.55, 14282.07, 16308.57, 11891.35, 72088.04, 46002.37, -187500.02, 51184.64, 0.000, 0.000, 0.000, 23:07:12.771
152, 18431.16, 14237.59, 16298.29, 12448.22, 71979.50, 45968.13, -187500.02, 51119.53, 0.000, 0.000, 0.000, 23:07:12.771
153, 18458.90, 14190.47, 16342.99, 12026.67, 71659.11, 45958.27, -187500.02, 51068.95, 0.000, 0.000, 0.000, 23:07:12.772
154, 18485.16, 14201.02, 16376.34, 11217.69, 71573.34, 45990.14, -187500.02, 51108.69, 0.280, 0.898, 0.298, 23:07:12.772
155, 18477.16, 14257.78, 16351.66, 11121.02, 71822.03, 46026.51, -187500.02, 51186.88, 0.000, 0.000, 0.000, 23:07:12.772
156, 18447.41, 14285.60, 16318.34, 11886.99, 72086.01, 46004.96, -187500.02, 51198.46, 0.000, 0.000, 0.000, 23:07:12.772
157, 18431.11, 14238.22, 16304.10, 12459.00, 71995.75, 45956.93, -187500.02, 51116.79, 0.000, 0.000, 0.000, 23:07:12.772
158, 18456.93, 14191.32, 16334.86, 12053.09, 71668.70, 45933.39, -187500.02, 51060.34, 0.000, 0.000, 0.000, 23:07:12.772
159, 18484.65, 14202.66, 16357.99, 11257.50, 71584.59, 45994.93, -187500.02, 51103.04, 0.000, 0.000, 0.000, 23:07:12.772
160, 18480.20, 14261.91, 16334.41, 11164.23, 71840.85, 46016.47, -187500.02, 51170.54, 0.000, 0.000, 0.000, 23:07:12.773
161, 18455.07, 14295.62, 16309.29, 11919.80, 72107.26, 46001.07, -187500.02, 51188.60, 0.000, 0.000, 0.000, 23:07:12.773
162, 18439.59, 14249.46, 16301.10, 12487.49, 71990.48, 45959.75, -187500.02, 51125.48, 0.000, 0.000, 0.000, 23:07:12.773
163, 18458.29, 14194.97, 16339.15, 12094.28, 71661.99, 45952.64, -187500.02, 51066.65, 0.000, 0.000, 0.000, 23:07:12.773
164, 18501.46, 14226.13, 16390.71, 11271.05, 71578.82, 45998.17, -187500.02, 51123.89, 0.292, 0.904, 0.294, 23:07:12.774
165, 18492.69, 14282.23, 16368.88, 11153.90, 71848.41, 46029.13, -187500.02, 51191.93, 0.000, 0.000, 0.000, 23:07:12.774
166, 18458.70, 14297.18, 16326.61, 11924.52, 72103.55, 46011.00, -187500.02, 51188.60, 0.000, 0.000, 0.000, 23:07:12.774
167, 18449.11, 14247.85, 16311.03, 12481.91, 71991.73, 45958.63, -187500.02, 51115.71, 0.000, 0.000, 0.000, 23:07:12.774
168, 18469.89, 14197.02, 16340.22, 12071.08, 71667.63, 45954.63, -187500.02, 51061.98, 0.000, 0.000, 0.000, 23:07:12.774
169, 18507.65, 14219.75, 16378.78, 11253.19, 71582.24, 46001.36, -187500.02, 51128.52, 0.000, 0.000, 0.000, 23:07:12.774
170, 18501.46, 14278.65, 16372.94, 11142.97, 71846.46, 46036.07, -187500.02, 51214.13, 0.000, 0.000, 0.000, 23:07:12.775
171, 18466.77, 14298.68, 16324.69, 11902.01, 72110.62, 46005.48, -187500.02, 51202.88, 0.000, 0.000, 0.000, 23:07:12.775
172, 18454.34, 14254.42, 16297.64, 12463.51, 72003.70, 45958.18, -187500.02, 51133.10, 0.000, 0.000, 0.000, 23:07:12.775
173, 18473.87, 14199.48, 16321.09, 12080.02, 71678.78, 45929.88, -187500.02, 51073.02, 0.000, 0.000, 0.000, 23:07:12.775
174, 18517.57, 14229.99, 16377.77, 11260.72, 71587.92, 46001.21, -187500.02, 51127.63, 0.288, 0.902, 0.296, 23:07:12.775
175, 18508.05, 14283.64, 16376.99, 11152.13, 71847.76, 46033.84, -187500.02, 51227.38, 0.000, 0.000, 0.000, 23:07:12.775
176, 18471.32, 14300.94, 16324.98, 11915.58, 72100.40, 45999.46, -187500.02, 51241.21, 0.000, 0.000, 0.000, 23:07:12.775
177, 18455.75, 14254.96, 16304.79, 12504.48, 71995.62, 45955.70, -187500.02, 51166.20, 0.000, 0.000, 0.000, 23:07:12.776
178, 18487.82, 14213.90, 16345.16, 12104.90, 71679.05, 45958.20, -187500.02, 51120.52, 0.000, 0.000, 0.000, 23:07:12.776
179, 18515.76, 14232.18, 16385.59, 11297.87, 71583.96, 45993.88, -187500.02, 51164.39, 0.000, 0.000, 0.000, 23:07:12.776
180, 18502.71, 14287.35, 16367.04, 11198.31, 71843.84, 45998.48, -187500.02, 51230.20, 0.000, 0.000, 0.000, 23:07:12.776
181, 18479.15, 14319.91, 16328.28, 11945.80, 72108.40, 45977.18, -187500.02, 51231.14, 0.000, 0.000, 0.000, 23:07:12.776
182, 18464.96, 14269.51, 16314.69, 12519.19, 72006.21, 45936.43, -187500.02, 51157.62, 0.000, 0.000, 0.000, 23:07:12.776
183, 18488.94, 14220.65, 16356.09, 12125.24, 71684.70, 45965.76, -187500.02, 51118.84, 0.000, 0.000, 0.000, 23:07:12.777
184, 18511.69, 14235.76, 16395.41, 11333.81, 71604.68, 45992.98, -187500.02, 51173.18, 0.278, 0.900, 0.290, 23:07:12.777
185, 18510.64, 14297.45, 16388.88, 11215.64, 71853.91, 46022.73, -187500.02, 51250.38, 0.000, 0.000, 0.000, 23:07:12.777
186, 18477.98, 14320.16, 16341.92, 11945.17, 72103.33, 45986.66, -187500.02, 51234.29, 0.000, 0.000, 0.000, 23:07:12.777
187, 18453.89, 14261.60, 16319.54, 12509.24, 71997.41, 45947.29, -187500.02, 51158.20, 0.000, 0.000, 0.000, 23:07:12.777
188, 18466.00, 14204.15, 16342.32, 12133.00, 71665.70, 45947.72, -187500.02, 51127.45, 0.000, 0.000, 0.000, 23:07:12.778
189, 18491.06, 14215.51, 16380.54, 11355.11, 71560.52, 45971.28, -187500.02, 51157.64, 0.000, 0.000, 0.000, 23:07:12.778
190, 18500.40, 14292.67, 16390.73, 11228.38, 71817.98, 45998.19, -187500.02, 51235.41, 0.000, 0.000, 0.000, 23:07:12.778
191, 18468.20, 14317.50, 16349.92, 11958.14, 72091.03, 46012.61, -187500.02, 51249.71, 0.000, 0.000, 0.000, 23:07:12.778
192, 18462.50, 14275.92, 16340.51, 12524.71, 71998.99, 45963.34, -187500.02, 51181.43, 0.000, 0.000, 0.000, 23:07:12.778
193, 18490.28, 14231.33, 16372.81, 12117.95, 71683.79, 45977.89, -187500.02, 51150.82, 0.000, 0.000, 0.000, 23:07:12.778
194, 18510.44, 14237.90, 16406.07, 11327.71, 71584.68, 46010.42, -187500.02, 51184.71, 0.000, 0.000, 0.000, 23:07:13.232
195, 18507.65, 14297.70, 16392.10, 11216.02, 71843.16, 46033.21, -187500.02, 51254.85, 0.272, 0.896, 0.286, 23:07:13.232
196, 18475.24, 14323.53, 16343.89, 11959.23, 72104.22, 46003.73, -187500.02, 51252.17, 0.000, 0.000, 0.000, 23:07:13.233
197, 18455.52, 14274.09, 16329.42, 12536.33, 71995.32, 45954.98, -187500.02, 51178.59, 0.000, 0.000, 0.000, 23:07:13.233
198, 18469.00, 14215.51, 16357.32, 12176.40, 71675.31, 45950.67, -187500.02, 51131.07, 0.000, 0.000, 0.000, 23:07:13.233
199, 18508.09, 14238.08, 16402.78, 11378.45, 71582.15, 45985.65, -187500.02, 51172.48, 0.000, 0.000, 0.000, 23:07:13.234
200, 18500.27, 14294.59, 16389.66, 11271.05, 71833.34, 46015.47, -187500.02, 51236.72, 0.000, 0.000, 0.000, 23:07:13.235
201, 18476.44, 14325.75, 16352.94, 12001.75, 72097.47, 45994.32, -187500.02, 51247.50, 0.000, 0.000, 0.000, 23:07:13.235
202, 18451.77, 14271.54, 16319.46, 12584.55, 72003.82, 45942.24, -187500.02, 51173.73, 0.000, 0.000, 0.000, 23:07:13.235
203, 18470.63, 14215.11, 16355.42, 12213.40, 71670.95, 45934.02, -187500.02, 51124.70, 0.000, 0.000, 0.000, 23:07:13.236
204, 18497.63, 14225.86, 16396.37, 11423.04, 71574.13, 45964.93, -187500.02, 51156.61, 0.000, 0.000, 0.000, 23:07:13.236
205, 18498.48, 14286.61, 16397.08, 11303.03, 71831.82, 45992.80, -187500.02, 51231.23, 0.270, 0.900, 0.292, 23:07:13.236
206, 18477.00, 14320.52, 16363.29, 12040.62, 72094.74, 45965.24, -187500.02, 51232.52, 0.000, 0.000, 0.000, 23:07:13.236
207, 18466.92, 14280.73, 16359.73, 12613.00, 72008.18, 45942.80, -187500.02, 51161.98, 0.000, 0.000, 0.000, 23:07:13.237
208, 18499.44, 14240.21, 16390.18, 12233.74, 71687.43, 45960.50, -187500.02, 51116.11, 0.000, 0.000, 0.000, 23:07:13.237
209, 18532.70, 14259.85, 16422.25, 11419.82, 71585.39, 46008.54, -187500.02, 51174.23, 0.000, 0.000, 0.000, 23:07:13.237
210, 18507.94, 14299.97, 16412.82, 11298.56, 71830.48, 46032.05, -187500.02, 51256.48, 0.000, 0.000, 0.000, 23:07:13.237
211, 18461.96, 14313.52, 16371.71, 12031.16, 72107.73, 45999.64, -187500.02, 51257.62, 0.000, 0.000, 0.000, 23:07:13.238
212, 18432.50, 14254.02, 16341.81, 12631.95, 72012.20, 45955.59, -187500.02, 51166.34, 0.000, 0.000, 0.000, 23:07:13.238
213, 18456.17, 14200.08, 16367.65, 12263.73, 71679.23, 45945.98, -187500.02, 51102.48, 0.000, 0.000, 0.000, 23:07:13.238
214, 18484.29, 14212.16, 16402.42, 11472.23, 71583.38, 45986.50, -187500.02, 51159.99, 0.000, 0.000, 0.000, 23:07:13.238
215, 18474.07, 14264.61, 16381.12, 11357.84, 71827.55, 45996.94, -187500.02, 51238.09, 0.274, 0.898, 0.286, 23:07:13.238
216, 18451.61, 14298.10, 16357.59, 12094.13, 72094.16, 45971.19, -187500.02, 51243.90, 0.000, 0.000, 0.000, 23:07:13.239
217, 18445.08, 14256.46, 16344.62, 12667.76, 72002.48, 45946.00, -187500.02, 51168.02, 0.000, 0.000, 0.000, 23:07:13.239
218, 18476.24, 14212.83, 16375.56, 12289.84, 71685.77, 45952.19, -187500.02, 51121.43, 0.000, 0.000, 0.000, 23:07:13.239
219, 18513.97, 14237.05, 16421.07, 11481.33, 71591.16, 45985.65, -187500.02, 51179.52, 0.000, 0.000, 0.000, 23:07:13.239
220, 18507.47, 14298.46, 16406.31, 11358.78, 71836.13, 46009.99, -187500.02, 51255.95, 0.000, 0.000, 0.000, 23:07:13.239
221, 18480.02, 14323.96, 16360.49, 12089.77, 72098.05, 45980.93, -187500.02, 51250.43, 0.000, 0.000, 0.000, 23:07:13.240
222, 18465.36, 14276.64, 16347.98, 12666.15, 72022.62, 45927.60, -187500.02, 51178.65, 0.000, 0.000, 0.000, 23:07:13.240
223, 18485.92, 14223.22, 16381.01, 12302.74, 71707.63, 45929.93, -187500.02, 51129.73, 0.000, 0.000, 0.000, 23:07:13.240
224, 18518.29, 14241.37, 16420.20, 11508.94, 71603.45, 45991.30, -187500.02, 51178.70, 0.000, 0.000, 0.000, 23:07:13.240
225, 18504.27, 14288.31, 16400.84, 11395.01, 71845.97, 45996.85, -187500.02, 51240.52, 0.276, 0.898, 0.284, 23:07:13.240
226, 18476.96, 14316.56, 16356.16, 12123.65, 72103.17, 45950.02, -187500.02, 51225.14, 0.000, 0.000, 0.000, 23:07:13.240
227, 18454.25, 14266.09, 16333.20, 12707.12, 72017.67, 45930.02, -187500.02, 51148.16, 0.000, 0.000, 0.000, 23:07:13.241
228, 18481.47, 14217.32, 16374.87, 12335.50, 71697.73, 45943.74, -187500.02, 51098.75, 0.000, 0.000, 0.000, 23:07:13.241
